##TITLE= SPECTRASUITE EXPORTED SPECTRUM
##DATA TYPE= LINK
##BLOCKS= 3
##ORIGIN= OCEANOPTICS EXPORT
##OWNER= hugo
##TITLE= SPECTRASUITE EXPORTED SPECTRA: PROCESSED SPECTRUM
##JCAMP-DX= 5 $$EXPORTED SPECTRASUITE FILE
##DATA TYPE= UV/VIS SPECTRUM
##SAMPLE DESCRIPTION= PROCESSED SPECTRUM
##BLOCK_ID=1
##ORIGIN= OCEANOPTICS EXPORT
##OWNER= hugo
##SPECTROMETER/DATA SYSTEM= OCEANOPTICS EXPORT
##DATA PROCESSING= DARK:Yes REFERENCE:Yes
##DATA PROCESSING= BOXCAR:0 ELECTRICAL DARK: false
##.ACQUISITION TIME= 400
##.AVERAGES= 5
##XUNITS= NANOMETERS
##YUNITS= Transmission (%)
##XFACTOR= 1.0
##YFACTOR= 1.0
##FIRSTX= 176.36
##LASTX= 893.69
##FIRSTY= 32822.795
##MINY= 1645.748
##MAXY= 32822.795
##NPOINTS= 3648
##XYPOINTS= (XY..XY)
176.36, 32822.795
176.58, 32822.795
176.80, 32822.795
177.02, 1645.748
177.24, 1648.615
177.47, 2585.356
177.69, 2628.773
177.91, 3200.156
178.13, 2767.215
178.35, 2455.924
178.57, 2428.891
178.79, 2782.370
179.01, 2843.809
179.23, 2303.146
179.46, 2462.887
179.68, 2803.260
179.90, 2648.024
180.12, 2300.688
180.34, 2437.902
180.56, 2685.297
180.78, 3125.610
181.00, 2322.397
181.22, 2503.027
181.44, 2763.119
181.66, 2909.754
181.89, 2522.278
182.11, 2391.208
182.33, 2873.300
182.55, 3353.754
182.77, 2488.282
182.99, 2616.075
183.21, 2498.522
183.43, 2866.337
183.65, 2442.817
183.87, 2301.507
184.09, 3060.075
184.31, 3015.020
184.53, 2385.884
184.76, 2351.887
184.98, 2777.455
185.20, 3126.429
185.42, 2513.267
185.64, 2370.319
185.86, 3207.529
186.08, 3506.122
186.30, 2379.740
186.52, 2322.806
186.74, 3033.861
186.96, 2922.042
187.18, 2435.854
187.40, 2310.518
187.62, 3182.134
187.84, 3137.488
188.06, 2503.437
188.28, 2418.242
188.51, 3141.994
188.73, 3146.909
188.95, 2426.843
189.17, 2552.998
189.39, 2984.710
189.61, 3014.610
189.83, 2505.485
190.05, 2472.308
190.27, 3217.768
190.49, 3003.551
190.71, 2319.120
190.93, 2377.282
191.15, 2644.337
191.37, 3004.780
191.59, 2484.186
191.81, 2578.393
192.03, 2874.939
192.25, 3039.595
192.47, 2356.802
192.69, 2446.913
192.91, 2992.902
193.13, 2939.654
193.35, 2358.850
193.57, 2528.422
193.79, 2738.544
194.01, 3191.964
194.23, 2441.998
194.45, 2357.622
194.67, 3144.042
194.89, 2691.031
195.11, 2328.540
195.33, 2244.574
195.55, 2853.230
195.77, 2937.197
195.99, 2482.548
196.21, 2405.134
196.43, 3031.813
196.65, 2792.201
196.87, 2564.876
197.09, 2415.784
197.31, 3097.348
197.53, 3185.001
197.75, 2483.777
197.97, 2487.053
198.19, 3133.802
198.41, 3336.960
198.63, 2364.175
198.85, 2432.168
199.07, 3079.326
199.29, 2731.171
199.51, 2467.802
199.73, 2525.965
199.95, 2757.385
200.17, 3019.935
200.39, 2509.581
200.61, 2582.079
200.83, 2761.481
201.05, 3053.521
201.27, 2351.887
201.49, 2454.286
201.71, 3177.628
201.93, 3145.680
202.15, 2397.352
202.37, 2385.064
202.59, 3032.223
202.81, 2891.732
203.03, 2515.725
203.25, 2505.895
203.47, 2842.990
203.69, 2912.621
203.91, 2483.367
204.13, 2324.854
204.35, 2734.857
204.57, 3200.975
204.79, 2370.729
205.01, 2371.138
205.23, 3114.551
205.45, 2879.854
205.67, 2258.090
205.89, 2431.348
206.10, 3128.887
206.32, 2589.042
206.54, 2332.636
206.76, 2431.348
206.98, 2904.020
207.20, 2783.190
207.42, 2472.717
207.64, 2289.219
207.86, 2756.976
208.08, 3434.853
208.30, 2421.518
208.52, 2366.223
208.74, 3127.658
208.96, 3106.359
209.18, 2242.935
209.40, 2629.592
209.62, 2771.311
209.83, 2897.876
210.05, 2329.360
210.27, 2383.016
210.49, 2926.547
210.71, 2755.747
210.93, 2463.297
211.15, 2479.681
211.37, 2701.680
211.59, 2757.385
211.81, 2286.762
212.03, 2305.603
212.25, 3042.872
212.47, 2824.149
212.68, 2322.806
212.90, 2460.430
213.12, 2922.861
213.34, 3128.887
213.56, 2298.640
213.78, 2363.356
214.00, 3181.724
214.22, 2639.832
214.44, 2455.105
214.66, 2398.991
214.88, 2842.171
215.09, 2919.994
215.31, 2188.869
215.53, 2421.518
215.75, 3040.824
215.97, 2641.470
216.19, 2491.149
216.41, 2523.098
216.63, 2829.883
216.85, 3200.156
217.06, 2497.703
217.28, 2395.304
217.50, 2700.861
217.72, 3107.588
217.94, 2446.503
218.16, 2360.898
218.38, 2709.872
218.60, 2732.400
218.82, 2403.087
219.03, 2435.854
219.25, 2940.064
219.47, 2924.090
219.69, 2390.389
219.91, 2480.909
220.13, 3283.713
220.35, 2927.776
220.57, 2431.758
220.78, 2630.411
221.00, 3009.695
221.22, 3021.573
221.44, 2412.507
221.66, 2301.507
221.88, 3187.049
222.10, 2629.182
222.31, 2250.718
222.53, 2289.219
222.75, 2739.773
222.97, 2773.769
223.19, 2373.186
223.41, 2498.522
223.63, 2785.238
223.84, 3337.370
224.06, 2451.419
224.28, 2414.965
224.50, 3055.160
224.72, 2867.975
224.94, 2399.810
225.16, 2485.415
225.37, 3333.274
225.59, 2917.127
225.81, 2435.854
226.03, 2480.500
226.25, 3189.916
226.47, 2754.108
226.68, 2380.559
226.90, 2432.577
227.12, 2770.492
227.34, 3098.986
227.56, 2367.861
227.78, 2392.028
227.99, 2895.418
228.21, 2946.208
228.43, 2524.326
228.65, 2469.850
228.87, 2949.485
229.09, 2785.647
229.30, 2459.610
229.52, 2302.736
229.74, 2949.894
229.96, 3185.001
230.18, 2447.732
230.39, 2364.994
230.61, 2956.448
230.83, 2875.348
231.05, 2327.312
231.27, 2479.681
231.49, 2786.876
231.70, 3042.462
231.92, 2396.943
232.14, 2376.053
232.36, 2797.525
232.58, 3121.924
232.79, 2322.397
233.01, 2367.042
233.23, 2933.101
233.45, 2787.695
233.67, 2358.441
233.88, 2400.629
234.10, 3252.994
234.32, 3132.163
234.54, 2401.448
234.75, 2362.946
234.97, 2978.566
235.19, 3202.614
235.41, 2466.983
235.63, 2421.109
235.84, 3228.008
236.06, 2660.311
236.28, 2368.271
236.50, 2335.913
236.72, 2664.407
236.93, 2783.599
237.15, 2361.718
237.37, 2316.253
237.59, 3074.820
237.80, 2737.315
238.02, 2361.308
238.24, 2358.441
238.46, 3048.197
238.67, 3196.060
238.89, 2497.293
239.11, 2515.725
239.33, 2797.116
239.55, 2763.939
239.76, 2526.374
239.98, 2303.965
240.20, 2892.141
240.42, 2816.367
240.63, 2439.950
240.85, 2405.954
241.07, 2952.352
241.29, 3105.949
241.50, 2358.850
241.72, 2465.754
241.94, 2869.204
242.16, 3315.661
242.37, 2393.666
242.59, 2355.983
242.81, 2587.404
243.03, 3094.890
243.24, 2371.957
243.46, 2497.293
243.68, 3077.687
243.90, 2705.367
244.11, 2346.563
244.33, 2365.404
244.55, 2856.097
244.76, 2805.308
244.98, 2521.050
245.20, 2335.913
245.42, 3008.466
245.63, 2803.669
245.85, 2341.238
246.07, 2341.647
246.29, 2935.968
246.50, 2965.459
246.72, 2451.009
246.94, 2537.433
247.15, 2780.322
247.37, 3219.407
247.59, 2339.600
247.81, 2501.389
248.02, 2891.322
248.24, 3060.075
248.46, 2421.109
248.67, 2342.467
248.89, 3000.684
249.11, 3096.529
249.33, 2546.035
249.54, 2359.260
249.76, 2854.868
249.98, 2683.249
250.19, 2362.537
250.41, 2326.492
250.63, 2987.577
250.84, 2825.378
251.06, 2414.555
251.28, 2473.537
251.50, 2664.407
251.71, 2879.034
251.93, 2409.640
252.15, 2346.153
252.36, 2810.632
252.58, 3343.514
252.80, 2434.216
253.01, 2579.621
253.23, 3082.193
253.45, 2778.684
253.66, 2460.430
253.88, 2505.895
254.10, 2758.614
254.31, 3026.488
254.53, 2274.474
254.75, 2477.223
254.97, 3189.097
255.18, 2942.522
255.40, 2454.695
255.62, 2380.968
255.83, 2749.603
256.05, 2986.348
256.27, 2428.891
256.48, 2468.212
256.70, 2922.451
256.92, 2985.938
257.13, 2560.371
257.35, 2321.168
257.57, 3146.909
257.78, 2953.990
258.00, 2576.345
258.21, 2576.754
258.43, 3105.540
258.65, 2968.736
258.86, 2410.459
259.08, 2433.396
259.30, 3096.119
259.51, 3234.971
259.73, 2317.891
259.95, 2493.607
260.16, 3052.293
260.38, 3234.152
260.60, 2285.533
260.81, 2421.518
261.03, 2995.359
261.25, 2657.854
261.46, 2434.625
261.68, 2355.983
261.89, 2838.075
262.11, 2860.193
262.33, 2424.385
262.54, 2188.050
262.76, 2984.710
262.98, 2976.108
263.19, 2328.540
263.41, 2440.769
263.62, 2832.341
263.84, 2954.809
264.06, 2385.474
264.27, 2417.422
264.49, 2914.669
264.71, 2870.843
264.92, 2475.585
265.14, 2494.836
265.35, 3039.595
265.57, 2951.533
265.79, 2469.031
266.00, 2487.872
266.22, 3244.392
266.43, 2692.669
266.65, 2509.991
266.87, 2256.042
267.08, 2621.400
267.30, 2653.758
267.51, 2594.776
267.73, 2434.625
267.95, 3268.149
268.16, 2787.695
268.38, 2433.396
268.59, 2543.168
268.81, 3021.573
269.03, 3132.573
269.24, 2411.688
269.46, 2502.618
269.67, 2951.942
269.89, 2839.713
270.11, 2522.278
270.32, 2558.323
270.54, 2930.643
270.75, 3423.794
270.97, 2362.946
271.19, 2414.146
271.40, 2877.806
271.62, 2708.234
271.83, 2333.046
272.05, 2321.168
272.26, 3015.429
272.48, 3092.842
272.70, 2615.256
272.91, 2527.603
273.13, 3088.337
273.34, 3126.839
273.56, 2582.489
273.77, 2571.430
273.99, 3351.296
274.21, 3425.023
274.42, 2762.710
274.64, 2646.795
274.85, 2955.628
275.07, 2898.695
275.28, 2544.396
275.50, 2709.872
275.71, 2844.629
275.93, 2763.939
276.15, 2647.614
276.36, 2620.990
276.58, 3165.340
276.79, 2969.555
277.01, 2681.201
277.22, 2701.271
277.44, 3579.030
277.65, 3196.879
277.87, 2617.714
278.08, 2622.219
278.30, 3545.444
278.52, 3028.536
278.73, 2745.507
278.95, 2549.721
279.16, 2811.042
279.38, 3104.721
279.59, 2785.647
279.81, 2599.282
280.02, 3281.256
280.24, 3384.883
280.45, 2726.666
280.67, 2599.692
280.88, 3098.986
281.10, 3259.137
281.31, 2794.249
281.53, 2679.972
281.74, 3112.912
281.96, 2935.149
282.17, 2697.994
282.39, 2653.758
282.60, 2908.525
282.82, 3064.171
283.04, 2720.931
283.25, 2693.488
283.47, 3126.839
283.68, 3113.322
283.90, 2860.603
284.11, 2643.928
284.33, 2932.691
284.54, 3052.293
284.76, 2647.204
284.97, 2821.691
285.19, 3059.665
285.40, 3252.994
285.62, 2866.337
285.83, 2705.367
286.05, 3189.507
286.26, 3146.909
286.48, 2745.917
286.69, 2819.643
286.91, 2942.112
287.12, 3463.934
287.33, 2669.322
287.55, 2694.717
287.76, 3351.296
287.98, 3258.728
288.19, 3020.344
288.41, 2575.116
288.62, 3091.204
288.84, 3250.946
289.05, 2622.629
289.27, 2666.865
289.48, 3237.839
289.70, 2956.038
289.91, 2917.946
290.13, 2777.455
290.34, 3292.724
290.56, 3246.850
290.77, 2849.953
290.99, 2833.979
291.20, 3052.702
291.41, 3029.765
291.63, 2832.341
291.84, 2984.300
292.06, 3300.916
292.27, 3180.086
292.49, 2839.713
292.70, 3078.916
292.92, 3327.540
293.13, 3424.613
293.35, 2948.256
293.56, 2916.717
293.77, 3121.924
293.99, 3527.831
294.20, 2868.795
294.42, 2890.503
294.63, 3330.816
294.85, 3570.838
295.06, 2845.857
295.28, 2917.946
295.49, 2976.927
295.70, 3638.012
295.92, 2979.795
296.13, 3112.503
296.35, 3647.432
296.56, 3338.599
296.78, 2836.027
296.99, 3046.968
297.20, 3312.794
297.42, 3556.503
297.63, 3035.909
297.85, 2984.710
298.06, 3304.602
298.28, 3479.908
298.49, 2936.378
298.70, 3054.750
298.92, 3684.296
299.13, 3662.587
299.35, 3147.728
299.56, 3037.957
299.77, 3194.012
299.99, 3346.791
300.20, 3193.602
300.42, 3017.477
300.63, 3488.920
300.85, 3772.358
301.06, 3193.602
301.27, 3119.466
301.49, 3454.514
301.70, 3652.757
301.92, 3194.012
302.13, 3159.606
302.34, 3442.226
302.56, 3791.609
302.77, 3211.625
302.99, 3277.569
303.20, 3587.222
303.41, 3629.820
303.63, 3241.935
303.84, 3127.248
304.05, 3395.942
304.27, 3611.798
304.48, 3321.396
304.70, 3145.270
304.91, 3822.738
305.12, 3675.694
305.34, 3174.352
305.55, 3272.654
305.77, 3411.097
305.98, 3786.694
306.19, 3366.451
306.41, 3397.990
306.62, 3565.514
306.83, 3875.986
307.05, 3394.303
307.26, 3314.842
307.47, 4007.465
307.69, 4049.653
307.90, 3379.558
308.12, 3411.097
308.33, 3787.513
308.54, 4157.377
308.76, 3265.691
308.97, 3516.362
309.18, 3923.908
309.40, 3688.801
309.61, 3606.063
309.82, 3452.056
310.04, 3821.100
310.25, 4132.391
310.46, 3464.754
310.68, 3521.277
310.89, 3938.654
311.11, 3732.218
311.32, 3603.196
311.53, 3510.218
311.75, 4098.805
311.96, 4054.978
312.17, 3677.742
312.39, 3672.008
312.60, 3992.310
312.81, 4159.015
313.03, 3630.639
313.24, 3666.683
313.45, 3938.654
313.67, 4139.764
313.88, 3764.986
314.09, 3666.274
314.31, 3953.399
314.52, 4154.509
314.73, 3722.798
314.95, 3679.790
315.16, 4407.229
315.37, 4274.520
315.58, 3680.200
315.80, 3559.779
316.01, 3946.436
316.22, 4062.351
316.44, 3765.395
316.65, 3920.222
316.86, 4146.727
317.08, 4242.162
317.29, 3832.569
317.50, 3664.635
317.72, 3972.650
317.93, 4381.015
318.14, 3837.893
318.35, 3948.893
318.57, 4109.864
318.78, 4403.133
318.99, 3857.964
319.21, 3709.691
319.42, 4462.933
319.63, 4082.830
319.85, 3773.178
320.06, 3944.797
320.27, 4222.912
320.48, 3971.831
320.70, 3852.229
320.91, 3975.107
321.12, 4434.672
321.34, 4335.550
321.55, 4003.779
321.76, 3939.473
321.97, 4557.959
322.19, 4302.782
322.40, 4167.207
322.61, 4172.122
322.83, 4405.181
323.04, 4538.299
323.25, 4193.011
323.46, 4233.151
323.68, 4708.690
323.89, 4417.878
324.10, 4218.816
324.31, 4430.576
324.53, 4706.642
324.74, 4981.070
324.95, 4426.480
325.16, 4632.096
325.38, 5022.029
325.59, 5018.343
325.80, 4561.236
326.01, 4480.956
326.23, 5151.461
326.44, 5009.332
326.65, 4537.889
326.86, 4651.347
327.08, 4859.011
327.29, 4915.125
327.50, 4496.520
327.71, 4670.598
327.93, 4451.465
328.14, 4738.590
328.35, 4480.546
328.56, 4605.063
328.78, 4984.756
328.99, 5377.556
329.20, 4573.933
329.41, 4657.900
329.63, 5053.158
329.84, 4928.232
330.05, 4664.863
330.26, 4592.365
330.48, 4644.793
330.69, 4913.487
330.90, 4662.406
331.11, 4616.941
331.32, 4933.557
331.54, 5263.689
331.75, 4689.439
331.96, 4823.786
332.17, 5445.958
332.39, 4858.601
332.60, 4746.782
332.81, 4652.575
333.02, 4975.335
333.23, 4938.472
333.45, 4834.845
333.66, 4949.121
333.87, 5257.955
334.08, 5221.911
334.29, 4865.564
334.51, 5075.276
334.72, 5388.206
334.93, 5381.652
335.14, 4999.501
335.35, 4965.915
335.57, 5208.804
335.78, 5371.822
335.99, 4949.940
336.20, 4895.055
336.41, 5246.896
336.63, 5753.973
336.84, 4945.435
337.05, 5318.165
337.26, 5793.704
337.47, 5411.553
337.69, 5408.685
337.90, 5227.645
338.11, 5758.069
338.32, 6028.401
338.53, 5231.741
338.74, 5333.730
338.96, 6030.449
339.17, 6216.814
339.38, 5838.349
339.59, 5542.213
339.80, 5969.419
340.01, 6163.567
340.23, 5701.955
340.44, 5532.792
340.65, 6140.220
340.86, 5990.718
341.07, 5737.589
341.28, 5784.693
341.50, 6280.301
341.71, 6032.087
341.92, 5928.460
342.13, 5840.397
342.34, 6075.914
342.55, 6050.109
342.77, 5945.663
342.98, 5852.276
343.19, 6394.987
343.40, 6515.408
343.61, 5977.202
343.82, 6220.091
344.03, 6140.220
344.25, 6688.666
344.46, 6035.774
344.67, 6250.401
344.88, 6440.862
345.09, 6640.743
345.30, 6208.622
345.51, 6387.205
345.73, 6721.843
345.94, 6659.585
346.15, 6463.389
346.36, 6483.869
346.57, 6769.765
346.78, 6552.681
346.99, 6435.127
347.21, 6575.618
347.42, 6682.522
347.63, 6695.629
347.84, 6562.921
348.05, 6542.441
348.26, 6699.315
348.47, 6691.943
348.68, 6410.552
348.89, 6594.459
349.11, 6916.810
349.32, 6999.548
349.53, 6359.353
349.74, 6697.677
349.95, 6654.670
350.16, 7058.119
350.37, 6428.984
350.58, 6664.910
350.79, 7124.474
351.01, 7171.987
351.22, 6744.371
351.43, 6682.112
351.64, 7207.621
351.85, 7110.957
352.06, 6767.308
352.27, 6782.053
352.48, 7116.691
352.69, 7448.053
352.90, 6833.662
353.12, 7005.691
353.33, 7278.891
353.54, 7185.094
353.75, 6934.013
353.96, 6870.935
354.17, 7200.658
354.38, 7581.580
354.59, 7094.983
354.80, 7122.426
355.01, 7340.739
355.22, 7412.828
355.43, 7140.448
355.64, 7276.023
355.86, 7630.322
356.07, 7805.628
356.28, 7312.887
356.49, 7024.533
356.70, 7672.920
356.91, 8087.838
357.12, 7482.868
357.33, 7427.983
357.54, 8002.233
357.75, 7862.152
357.96, 7356.713
358.17, 7524.237
358.38, 7905.159
358.59, 7994.041
358.80, 7591.411
359.02, 7648.344
359.23, 7875.259
359.44, 8266.421
359.65, 7622.540
359.86, 8029.676
360.07, 8171.395
360.28, 7907.207
360.49, 7928.916
360.70, 8163.203
360.91, 8311.476
361.12, 8337.281
361.33, 8182.045
361.54, 8140.676
361.75, 8626.044
361.96, 8533.067
362.17, 8404.454
362.38, 8278.299
362.59, 8990.173
362.80, 8818.553
363.01, 8231.196
363.22, 8461.388
363.43, 8384.794
363.64, 8979.524
363.85, 8423.295
364.06, 8643.657
364.27, 8901.701
364.48, 9043.830
364.69, 8432.307
364.90, 8571.568
365.11, 9088.066
365.33, 9163.022
365.54, 8642.019
365.75, 8892.690
365.96, 9143.361
366.17, 8990.583
366.38, 8756.705
366.59, 8868.524
366.80, 8880.812
367.01, 9569.748
367.22, 8504.395
367.43, 8761.620
367.64, 9181.454
367.85, 9169.985
368.06, 8731.720
368.27, 8830.841
368.48, 9636.512
368.69, 8916.446
368.90, 8905.387
369.11, 8849.683
369.32, 9551.317
369.53, 9259.686
369.74, 8907.435
369.94, 8948.395
370.15, 9179.815
370.36, 9586.132
370.57, 8836.985
370.78, 9097.077
370.99, 9308.018
371.20, 9697.951
371.41, 9163.022
371.62, 9234.291
371.83, 9368.228
372.04, 9247.808
372.25, 9100.354
372.46, 9256.000
372.67, 9424.752
372.88, 9931.420
373.09, 9038.915
373.30, 9194.560
373.51, 9380.926
373.72, 9672.966
373.93, 9391.575
374.14, 9221.184
374.35, 9564.424
374.56, 9938.792
374.77, 9559.918
374.98, 9310.885
375.19, 9926.505
375.40, 9967.054
375.61, 9412.464
375.82, 9660.269
376.03, 9921.180
376.23, 9986.305
376.44, 9598.420
376.65, 9357.988
376.86, 9814.685
377.07, 10152.191
377.28, 9758.571
377.49, 9575.073
377.70, 10188.235
377.91, 10013.338
378.12, 9674.195
378.33, 9799.940
378.54, 9884.726
378.75, 10376.238
378.96, 9831.069
379.17, 9787.243
379.37, 10233.700
379.58, 9992.040
379.79, 9753.656
380.00, 9798.302
380.21, 10157.925
380.42, 10397.947
380.63, 9917.903
380.84, 9933.058
381.05, 10452.832
381.26, 10428.666
381.47, 9962.139
381.68, 10292.681
381.89, 10634.283
382.09, 10214.859
382.30, 10348.796
382.51, 10204.209
382.72, 10624.862
382.93, 10474.131
383.14, 10103.449
383.35, 10494.611
383.56, 10550.725
383.77, 10830.068
383.98, 10445.460
384.18, 10588.818
384.39, 10942.707
384.60, 10930.009
384.81, 10317.257
385.02, 10262.371
385.23, 10657.220
385.44, 10986.943
385.65, 10563.423
385.86, 10458.157
386.06, 11077.463
386.27, 11074.596
386.48, 10678.519
386.69, 10674.423
386.90, 10573.253
387.11, 11047.153
387.32, 10554.412
387.53, 10662.135
387.73, 10849.729
387.94, 11279.802
388.15, 10751.836
388.36, 10657.629
388.57, 11413.739
388.78, 11275.297
388.99, 10844.404
389.20, 10457.338
389.40, 11815.960
389.61, 10974.245
389.82, 10652.714
390.03, 10807.950
390.24, 11385.477
390.45, 10994.315
390.66, 11045.515
390.86, 10732.175
391.07, 10893.555
391.28, 11087.293
391.49, 10850.138
391.70, 10934.924
391.91, 11177.813
392.12, 11562.012
392.32, 10808.360
392.53, 11161.839
392.74, 11448.145
392.95, 11580.034
393.16, 11022.987
393.37, 10931.648
393.57, 11356.396
393.78, 11431.352
393.99, 11557.097
394.20, 11359.673
394.41, 11824.562
394.62, 11642.702
394.82, 11534.979
395.03, 11412.920
395.24, 11759.437
395.45, 11598.876
395.66, 11346.976
395.87, 11394.489
396.07, 11811.455
396.28, 11858.968
396.49, 11876.580
396.70, 11472.311
396.91, 11711.104
397.11, 11917.949
397.32, 11160.610
397.53, 11559.555
397.74, 11857.739
397.95, 11854.053
398.16, 11285.127
398.36, 11856.920
398.57, 12036.732
398.78, 11793.842
398.99, 11771.315
399.20, 11431.352
399.40, 11326.496
399.61, 12180.909
399.82, 11512.861
400.03, 11621.813
400.24, 12054.754
400.44, 11741.414
400.65, 11596.418
400.86, 11706.599
401.07, 12126.842
401.27, 12296.414
401.48, 11679.566
401.69, 11557.097
401.90, 12538.893
402.11, 12182.956
402.31, 11908.529
402.52, 11957.680
402.73, 11934.333
402.94, 12110.868
403.15, 11890.916
403.35, 11807.359
403.56, 12627.366
403.77, 12143.636
403.98, 12041.237
404.18, 11940.887
404.39, 12526.196
404.60, 12336.554
404.81, 12293.956
405.01, 12367.274
405.22, 12635.967
405.43, 12795.709
405.64, 12506.126
405.85, 12423.798
406.05, 13001.734
406.26, 12866.159
406.47, 12552.820
406.68, 12560.602
406.88, 13418.701
407.09, 12861.653
407.30, 12352.938
407.51, 12182.137
407.71, 13462.118
407.92, 12403.318
408.13, 12412.329
408.34, 12665.048
408.54, 12691.262
408.75, 12505.307
408.96, 13164.343
409.16, 12850.594
409.37, 13105.771
409.58, 13177.860
409.79, 12910.395
409.99, 12864.520
410.20, 13419.110
410.41, 12724.849
410.62, 12441.820
410.82, 12749.425
411.03, 13606.704
411.24, 13118.878
411.45, 12864.520
411.65, 12889.506
411.86, 13134.852
412.07, 13222.096
412.27, 13048.018
412.48, 12906.709
412.69, 13081.605
412.90, 13794.298
413.10, 12870.664
413.31, 12904.251
413.52, 13362.586
413.72, 12753.521
413.93, 12977.568
414.14, 12696.177
414.35, 13205.303
414.55, 13563.697
414.76, 13049.657
414.97, 13137.720
415.17, 13240.528
415.38, 13382.247
415.59, 12855.919
415.79, 13047.609
416.00, 13676.335
416.21, 13728.354
416.41, 12981.664
416.62, 12652.351
416.83, 13888.505
417.04, 13841.811
417.24, 13082.834
417.45, 13000.506
417.66, 13530.930
417.86, 13657.904
418.07, 13046.380
418.28, 13299.919
418.48, 13972.062
418.69, 13470.719
418.90, 13641.110
419.10, 13323.266
419.31, 13624.726
419.52, 13686.166
419.72, 13401.908
419.93, 13421.158
420.14, 14076.099
420.34, 13666.505
420.55, 13181.546
420.76, 13784.058
420.96, 13482.597
421.17, 13668.143
421.38, 13262.236
421.58, 13510.040
421.79, 14037.187
422.00, 13973.291
422.20, 13189.738
422.41, 13273.295
422.62, 13582.538
422.82, 13944.210
423.03, 13502.668
423.24, 13608.752
423.44, 13424.026
423.65, 13476.863
423.85, 13389.620
424.06, 13499.800
424.27, 14058.896
424.47, 13813.959
424.68, 13952.401
424.89, 13800.852
425.09, 13936.427
425.30, 13758.664
425.51, 13430.169
425.71, 13533.387
425.92, 13725.487
426.12, 14419.338
426.33, 13511.679
426.54, 13055.801
426.74, 13741.870
426.95, 13999.095
427.16, 12918.177
427.36, 14238.298
427.57, 13827.066
427.77, 14353.394
427.98, 13678.793
428.19, 13967.966
428.39, 14014.250
428.60, 14284.582
428.81, 14039.645
429.01, 13545.265
429.22, 14243.623
429.42, 13939.294
429.63, 14078.147
429.84, 14002.372
430.04, 14520.508
430.25, 14587.272
430.45, 13716.476
430.66, 14536.073
430.87, 13889.734
431.07, 14123.612
431.28, 14215.770
431.48, 13965.099
431.69, 14493.475
431.90, 13915.538
432.10, 14787.563
432.31, 13990.084
432.51, 14657.312
432.72, 14625.774
432.92, 14402.545
433.13, 14160.475
433.34, 14484.054
433.54, 14737.593
433.75, 14331.276
433.95, 14211.674
434.16, 15113.600
434.37, 14278.029
434.57, 14409.508
434.78, 14571.298
434.98, 14867.434
435.19, 14810.500
435.39, 15105.408
435.60, 14563.925
435.81, 15286.858
436.01, 14689.261
436.22, 14252.224
436.42, 14713.427
436.63, 15560.876
436.83, 15502.714
437.04, 15050.113
437.24, 14870.711
437.45, 15274.570
437.66, 15075.508
437.86, 14586.043
438.07, 15121.792
438.27, 15156.198
438.48, 15080.832
438.68, 14845.316
438.89, 15085.338
439.09, 15329.456
439.30, 15304.880
439.50, 14417.700
439.71, 15282.762
439.92, 15107.046
440.12, 15224.190
440.33, 14609.390
440.53, 15251.633
440.74, 15400.315
440.94, 15497.799
441.15, 15036.187
441.35, 15025.947
441.56, 15379.426
441.76, 15430.625
441.97, 15033.729
442.17, 15543.673
442.38, 15080.832
442.58, 15388.437
442.79, 14719.980
443.00, 15023.489
443.20, 15468.308
443.41, 15021.032
443.61, 14662.637
443.82, 14869.482
444.02, 15021.441
444.23, 15038.235
444.43, 14760.940
444.64, 14821.559
444.84, 15179.954
445.05, 14750.290
445.25, 14795.345
445.46, 15037.006
445.66, 14742.917
445.87, 14635.194
446.07, 14581.128
446.28, 14757.253
446.48, 15314.710
446.69, 14714.655
446.89, 14785.515
447.10, 14900.201
447.30, 15322.083
447.51, 15162.341
447.71, 15628.459
447.92, 15035.777
448.12, 15732.496
448.33, 15366.319
448.53, 15159.065
448.73, 15373.282
448.94, 16433.311
449.14, 15943.437
449.35, 15717.751
449.55, 15605.931
449.76, 16009.791
449.96, 16357.946
450.17, 15726.762
450.37, 16086.795
450.58, 16443.551
450.78, 16269.064
450.99, 15778.780
451.19, 16070.001
451.40, 16130.621
451.60, 16258.414
451.81, 16107.684
452.01, 15998.322
452.21, 16031.909
452.42, 15982.348
452.62, 15323.312
452.83, 15641.976
453.03, 16042.968
453.24, 15756.252
453.44, 15730.858
453.65, 15414.651
453.85, 16098.673
454.06, 15433.492
454.26, 15436.769
454.46, 15623.544
454.67, 15530.976
454.87, 15746.013
455.08, 15542.035
455.28, 14966.556
455.49, 16147.824
455.69, 15695.223
455.89, 15326.998
456.10, 15061.172
456.30, 16147.005
456.51, 15716.112
456.71, 15194.699
456.92, 15460.116
457.12, 16168.713
457.32, 15540.806
457.53, 15594.463
457.73, 15725.942
457.94, 16321.901
458.14, 15796.802
458.35, 15529.747
458.55, 15282.762
458.75, 16248.994
458.96, 16352.211
459.16, 15663.684
459.37, 16088.023
459.57, 16046.654
459.77, 16252.680
459.98, 15943.027
460.18, 16318.625
460.39, 16620.495
460.59, 16406.687
460.79, 16572.163
461.00, 16072.459
461.20, 16844.953
461.41, 17041.558
461.61, 16704.052
461.81, 16750.336
462.02, 17128.391
462.22, 17696.908
462.43, 17272.159
462.63, 16788.019
462.83, 17674.790
463.04, 17588.365
463.24, 17645.299
463.45, 17706.328
463.65, 17710.015
463.85, 18100.357
464.06, 17506.856
464.26, 18123.704
464.46, 18442.368
464.67, 18799.944
464.87, 18410.420
465.08, 18231.837
465.28, 19144.821
465.48, 19099.766
465.69, 18826.977
465.89, 18681.981
466.09, 20233.112
466.30, 19851.371
466.50, 19224.283
466.71, 19745.695
466.91, 20412.924
467.11, 20871.259
467.32, 20241.304
467.52, 20308.068
467.72, 20968.742
467.93, 20293.322
468.13, 21053.528
468.33, 20562.016
468.54, 21792.026
468.74, 21554.461
468.94, 21186.237
469.15, 20842.997
469.35, 21152.650
469.55, 21456.159
469.76, 20952.768
469.96, 20955.226
470.17, 20935.565
470.37, 21552.414
470.57, 20997.824
470.78, 20974.886
470.98, 21606.889
471.18, 21722.395
471.39, 21164.528
471.59, 21571.664
471.79, 21730.587
471.99, 21435.679
472.20, 21549.956
472.40, 21463.532
472.60, 21286.997
472.81, 22039.830
473.01, 21973.066
473.21, 21618.358
473.42, 22145.915
473.62, 22105.775
473.82, 21842.406
474.03, 21629.827
474.23, 21792.435
474.43, 21819.878
474.64, 20977.754
474.84, 21316.488
475.04, 21431.993
475.25, 21088.344
475.45, 20917.134
475.65, 20634.104
475.85, 20888.052
476.06, 21008.473
476.26, 20422.754
476.46, 20544.403
476.67, 20880.270
476.87, 20872.488
477.07, 20379.747
477.28, 20438.728
477.48, 20963.827
477.68, 20968.333
477.88, 20536.621
478.09, 20769.680
478.29, 20964.237
478.49, 21679.797
478.70, 20994.137
478.90, 21178.864
479.10, 21674.472
479.30, 22108.232
479.51, 21411.104
479.71, 21430.355
479.91, 22427.306
480.11, 22600.154
480.32, 22306.476
480.52, 22674.291
480.72, 22695.180
480.93, 22966.741
481.13, 22537.896
481.33, 23206.353
481.53, 23690.493
481.74, 23776.917
481.94, 23554.098
482.14, 23127.711
482.34, 23771.592
482.55, 23974.341
482.75, 23536.076
482.95, 23232.567
483.15, 24026.769
483.36, 23424.667
483.56, 24247.131
483.76, 23192.427
483.96, 23733.500
484.17, 23708.925
484.37, 23216.183
484.57, 23295.645
484.77, 23678.615
484.98, 23608.574
485.18, 22949.128
485.38, 22938.888
485.58, 23409.512
485.79, 23191.198
485.99, 22557.557
486.19, 22601.793
486.39, 23495.936
486.59, 22644.390
486.80, 22689.036
487.00, 22264.697
487.20, 23010.567
487.40, 22739.007
487.61, 22564.520
487.81, 22213.498
488.01, 22668.556
488.21, 22831.575
488.41, 22621.863
488.62, 22562.881
488.82, 22427.306
489.02, 23022.036
489.22, 22577.627
489.43, 22877.449
489.63, 23358.722
489.83, 23157.202
490.03, 23036.372
490.23, 23014.663
490.44, 23635.607
490.64, 23681.482
490.84, 23744.559
491.04, 23834.260
491.24, 24141.456
491.45, 24651.400
491.65, 24237.710
491.85, 24060.766
492.05, 25215.820
492.25, 24567.024
492.45, 24267.201
492.66, 24066.500
492.86, 24650.990
493.06, 24759.533
493.26, 24273.345
493.46, 24183.234
493.67, 24933.200
493.87, 23988.268
494.07, 23903.072
494.27, 23650.353
494.47, 23797.806
494.67, 23877.268
494.88, 23274.346
495.08, 23265.744
495.28, 23483.238
495.48, 23358.312
495.68, 22893.014
495.89, 22806.999
496.09, 22977.390
496.29, 23042.925
496.49, 22817.649
496.69, 22588.686
496.89, 22509.634
497.09, 22888.099
497.30, 22334.738
497.50, 22344.568
497.70, 22755.800
497.90, 22992.136
498.10, 22313.029
498.30, 22756.619
498.51, 22295.007
498.71, 22353.579
498.91, 21836.262
499.11, 22096.354
499.31, 22381.431
499.51, 22529.295
499.71, 21850.188
499.92, 21759.668
500.12, 22099.631
500.32, 21940.299
500.52, 21934.155
500.72, 21475.410
500.92, 22174.177
501.12, 22177.454
501.32, 21360.314
501.53, 21632.284
501.73, 22087.343
501.93, 22242.579
502.13, 21329.185
502.33, 21207.126
502.53, 21848.140
502.73, 21890.738
502.93, 21413.971
503.14, 21621.635
503.34, 21843.225
503.54, 21728.539
503.74, 21674.472
503.94, 21357.447
504.14, 22008.291
504.34, 21652.354
504.54, 21536.030
504.74, 21263.240
504.95, 21635.151
505.15, 22218.413
505.35, 21064.178
505.55, 21388.986
505.75, 21478.277
505.95, 21538.897
506.15, 21115.787
506.35, 21142.820
506.55, 21216.547
506.75, 21448.786
506.95, 21014.617
507.16, 20976.115
507.36, 21314.030
507.56, 21294.369
507.76, 21101.451
507.96, 20968.742
508.16, 21185.008
508.36, 21180.093
508.56, 20934.746
508.76, 21163.709
508.96, 21275.528
509.16, 21620.406
509.36, 20894.606
509.57, 20876.584
509.77, 21094.897
509.97, 21053.938
510.17, 20854.875
510.37, 21131.761
510.57, 20990.861
510.77, 21035.097
510.97, 21191.971
511.17, 20607.890
511.37, 21560.196
511.57, 21426.668
511.77, 20957.683
511.97, 20917.134
512.17, 21418.476
512.37, 21386.528
512.57, 21043.289
512.78, 20892.558
512.98, 21250.953
513.18, 21086.705
513.38, 20877.813
513.58, 20980.621
513.78, 21488.107
513.98, 21330.414
514.18, 21232.521
514.38, 20807.362
514.58, 20937.613
514.78, 21306.657
514.98, 21224.739
515.18, 21148.145
515.38, 21471.724
515.58, 21467.218
515.78, 21085.067
515.98, 21200.572
516.18, 21812.096
516.38, 21946.852
516.58, 21411.923
516.78, 21139.133
516.98, 21495.480
517.18, 21826.432
517.38, 21482.783
517.58, 21669.967
517.78, 21674.882
517.98, 22012.387
518.18, 21507.768
518.38, 21454.930
518.58, 22254.048
518.78, 21744.103
518.98, 21567.159
519.18, 21506.949
519.38, 22097.583
519.58, 22064.815
519.78, 21689.218
519.98, 21615.901
520.18, 21881.317
520.38, 21931.697
520.58, 21797.351
520.78, 21738.369
520.98, 22186.874
521.18, 22081.609
521.38, 21976.753
521.58, 21894.834
521.78, 22366.686
521.98, 22144.276
522.18, 21764.583
522.38, 22158.203
522.58, 21811.686
522.78, 22351.531
522.98, 22190.561
523.18, 21936.203
523.38, 22349.483
523.58, 22247.494
523.78, 21878.450
523.98, 22093.896
524.18, 22472.771
524.38, 22230.291
524.58, 22145.505
524.78, 21984.945
524.98, 22612.033
525.18, 22291.321
525.38, 22209.812
525.58, 22285.177
525.78, 22730.405
525.98, 22571.483
526.18, 22236.435
526.38, 22079.151
526.58, 22476.867
526.78, 22161.479
526.98, 22218.413
527.17, 21886.232
527.37, 22223.738
527.57, 22210.221
527.77, 21939.889
527.97, 22189.332
528.17, 22161.070
528.37, 22228.243
528.57, 22000.919
528.77, 22083.247
528.97, 22564.929
529.17, 22342.110
529.37, 22019.350
529.57, 21773.594
529.77, 22025.085
529.97, 22455.568
530.17, 21858.790
530.36, 21616.720
530.56, 22068.502
530.76, 21658.089
530.96, 21665.461
531.16, 21552.414
531.36, 21919.819
531.56, 22177.454
531.76, 21122.340
531.96, 21206.716
532.16, 21771.546
532.36, 21553.233
532.56, 21300.104
532.76, 21307.067
532.95, 21424.620
533.15, 21754.343
533.35, 21403.321
533.55, 21048.204
533.75, 22063.996
533.95, 21455.749
534.15, 21320.583
534.35, 21297.646
534.55, 21876.812
534.75, 21469.676
534.94, 21153.469
535.14, 21203.030
535.34, 21545.450
535.54, 21253.410
535.74, 21518.008
535.94, 21121.930
536.14, 21560.196
536.34, 21814.963
536.54, 21349.255
536.73, 21067.045
536.93, 21571.255
537.13, 21774.413
537.33, 21336.148
537.53, 21061.720
537.73, 21140.772
537.93, 21059.672
538.13, 21386.118
538.32, 20791.798
538.52, 20851.599
538.72, 21035.097
538.92, 20742.647
539.12, 20549.728
539.32, 21235.798
539.52, 20932.289
539.72, 20693.495
539.91, 20470.267
540.11, 20811.049
540.31, 20908.532
540.51, 20340.016
540.71, 20638.200
540.91, 20993.728
541.11, 20516.551
541.30, 20247.448
541.50, 20138.496
541.70, 20350.256
541.90, 20496.890
542.10, 20027.906
542.30, 20170.035
542.49, 20702.097
542.69, 20353.533
542.89, 19984.898
543.09, 20241.714
543.29, 20811.868
543.49, 20720.529
543.68, 20326.909
543.88, 20130.304
544.08, 20464.123
544.28, 20548.090
544.48, 20371.555
544.68, 19993.500
544.87, 20632.466
545.07, 20306.839
545.27, 20062.721
545.47, 20081.153
545.67, 20097.127
545.87, 20265.470
546.06, 19970.972
546.26, 19867.345
546.46, 20225.739
546.66, 20075.828
546.86, 20112.692
547.05, 19899.703
547.25, 20147.507
547.45, 20634.514
547.65, 19616.264
547.85, 19480.279
548.04, 20379.747
548.24, 20176.179
548.44, 19719.072
548.64, 19759.622
548.84, 20296.599
549.03, 19580.629
549.23, 19691.629
549.43, 19645.345
549.63, 19892.330
549.83, 19865.706
550.02, 19579.400
550.22, 19535.984
550.42, 19805.496
550.62, 19901.341
550.82, 19405.733
551.01, 19498.710
551.21, 19916.496
551.41, 20295.370
551.61, 19320.128
551.80, 19682.208
552.00, 19592.917
552.20, 19862.430
552.40, 19359.858
552.60, 19533.526
552.79, 19920.182
552.99, 19843.179
553.19, 19508.541
553.39, 19283.674
553.58, 19738.323
553.78, 19205.441
553.98, 19309.069
554.18, 19242.305
554.37, 19277.530
554.57, 19524.515
554.77, 19372.556
554.97, 19429.489
555.16, 19695.315
555.36, 19955.817
555.56, 19261.965
555.76, 19168.168
555.95, 19936.566
556.15, 19455.703
556.35, 19208.308
556.55, 18918.316
556.74, 18964.191
556.94, 19250.497
557.14, 18892.512
557.34, 18870.394
557.53, 19501.987
557.73, 19262.784
557.93, 18775.368
558.13, 18830.663
558.32, 19147.689
558.52, 19175.541
558.72, 18738.504
558.92, 18927.327
559.11, 19175.541
559.31, 19098.537
559.51, 18827.796
559.70, 18795.438
559.90, 19017.438
560.10, 18656.995
560.30, 18526.744
560.49, 18681.571
560.69, 18672.150
560.89, 19115.740
561.08, 18376.833
561.28, 18319.900
561.48, 18779.873
561.68, 18899.475
561.87, 18328.911
562.07, 18424.756
562.27, 18545.995
562.46, 18714.748
562.66, 18502.169
562.86, 18248.221
563.05, 18763.899
563.25, 18628.733
563.45, 18247.811
563.65, 18488.652
563.84, 19037.098
564.04, 18620.541
564.24, 18287.951
564.43, 18244.125
564.63, 18856.058
564.83, 18559.922
565.02, 18314.165
565.22, 18215.044
565.42, 18573.029
565.61, 18643.888
565.81, 18368.232
566.01, 18364.955
566.20, 18488.652
566.40, 18287.542
566.60, 18120.837
566.79, 17866.889
566.99, 18614.398
567.19, 18374.376
567.38, 18120.428
567.58, 18001.645
567.78, 18278.531
567.97, 18148.689
568.17, 17749.745
568.37, 18032.774
568.56, 18673.379
568.76, 18235.114
568.96, 17857.059
569.15, 17960.276
569.35, 19748.153
569.55, 18688.124
569.74, 17876.719
569.94, 17935.291
570.14, 18496.844
570.33, 18331.368
570.53, 17739.915
570.73, 17869.347
570.92, 18140.907
571.12, 18206.852
571.31, 17623.181
571.51, 17819.786
571.71, 18192.516
571.90, 18468.173
572.10, 17733.771
572.30, 17728.446
572.49, 18338.741
572.69, 18212.586
572.88, 17900.066
573.08, 17593.280
573.28, 18533.708
573.47, 18058.988
573.67, 17364.727
573.87, 17538.395
574.06, 18024.583
574.26, 18090.527
574.45, 17653.491
574.65, 17280.760
574.85, 18084.383
575.04, 17714.930
575.24, 17518.325
575.44, 17317.214
575.63, 17834.121
575.83, 17459.343
576.02, 17273.797
576.22, 17356.535
576.42, 17635.878
576.61, 17585.088
576.81, 17176.314
577.00, 17302.059
577.20, 17547.406
577.40, 17601.472
577.59, 17026.403
577.79, 17144.775
577.98, 17552.731
578.18, 17324.587
578.37, 17278.303
578.57, 16888.370
578.77, 17193.926
578.96, 17064.085
579.16, 16949.809
579.35, 16749.108
579.55, 17184.506
579.75, 16922.366
579.94, 17066.952
580.14, 16740.506
580.33, 17775.959
580.53, 17243.078
580.72, 16803.584
580.92, 17109.141
581.12, 17131.259
581.31, 17243.897
581.51, 16960.868
581.70, 16987.491
581.90, 17746.059
582.09, 16946.122
582.29, 16720.436
582.48, 16702.824
582.68, 17285.266
582.88, 17278.712
583.07, 16818.329
583.27, 16575.440
583.46, 17192.698
583.66, 17315.985
583.85, 16838.399
584.05, 16755.661
584.24, 17422.070
584.44, 17157.882
584.63, 16623.772
584.83, 16573.802
585.03, 17104.225
585.22, 16791.705
585.42, 16332.141
585.61, 16370.233
585.81, 16873.624
586.00, 16664.322
586.20, 16370.233
586.39, 16330.093
586.59, 16677.019
586.78, 16588.547
586.98, 16427.577
587.17, 16387.436
587.37, 16842.085
587.56, 17108.321
587.76, 16267.835
587.95, 16383.750
588.15, 16484.100
588.34, 16820.787
588.54, 16091.710
588.74, 16230.152
588.93, 16295.278
589.13, 16693.403
589.32, 16178.953
589.52, 15852.507
589.71, 16744.192
589.91, 16432.901
590.10, 16048.702
590.30, 16045.835
590.49, 16475.499
590.69, 16506.219
590.88, 16038.462
591.08, 15786.972
591.27, 16284.219
591.47, 15927.872
591.66, 15843.496
591.85, 15900.839
592.05, 16428.396
592.24, 16457.477
592.44, 15796.393
592.63, 15678.430
592.83, 16190.422
593.02, 16160.112
593.22, 15817.282
593.41, 15472.404
593.61, 16101.130
593.80, 16592.233
594.00, 15610.847
594.19, 15720.208
594.39, 15934.426
594.58, 15809.909
594.78, 15484.692
594.97, 15740.688
595.17, 15925.824
595.36, 15986.444
595.56, 15594.872
595.75, 15413.013
595.94, 15972.108
596.14, 15953.677
596.33, 15355.260
596.53, 15218.456
596.72, 15864.385
596.92, 15630.917
597.11, 15140.223
597.31, 15561.695
597.50, 15754.614
597.69, 15880.359
597.89, 15209.035
598.08, 14957.954
598.28, 15811.138
598.47, 15494.112
598.67, 15297.507
598.86, 15079.604
599.06, 15636.241
599.25, 15266.788
599.44, 15096.397
599.64, 14875.216
599.83, 15254.090
600.03, 15242.212
600.22, 14822.788
600.42, 14942.390
600.61, 15163.570
600.80, 15011.611
601.00, 14936.655
601.19, 14689.670
601.39, 15423.253
601.58, 14956.725
601.78, 14866.615
601.97, 14676.973
602.16, 15045.198
602.36, 14733.497
602.55, 14788.382
602.75, 14514.364
602.94, 14960.821
603.13, 15004.238
603.33, 14425.892
603.52, 14417.290
603.72, 15025.537
603.91, 14566.383
604.10, 14490.198
604.30, 14344.792
604.49, 14730.220
604.69, 14686.803
604.88, 14131.804
605.07, 14188.328
605.27, 14498.800
605.46, 14264.102
605.66, 14202.254
605.85, 13987.217
606.04, 14563.106
606.24, 14535.663
606.43, 13813.549
606.62, 13878.265
606.82, 14171.944
607.01, 14380.427
607.21, 13741.051
607.40, 13918.815
607.59, 14141.634
607.79, 14014.250
607.98, 13895.058
608.17, 13531.339
608.37, 14234.202
608.56, 14648.301
608.76, 13460.479
608.95, 13538.302
609.14, 14360.357
609.34, 14096.169
609.53, 13585.815
609.72, 13489.561
609.92, 13941.752
610.11, 14072.412
610.30, 13521.918
610.50, 13560.011
610.69, 13725.487
610.88, 14128.527
611.08, 13557.553
611.27, 13617.763
611.46, 14230.925
611.66, 13789.383
611.85, 13389.210
612.04, 13470.310
612.24, 14188.737
612.43, 13789.793
612.62, 13322.446
612.82, 13353.166
613.01, 13770.951
613.20, 13858.605
613.40, 13488.741
613.59, 13238.889
613.78, 13870.073
613.98, 13377.332
614.17, 13310.158
614.36, 13396.173
614.56, 14731.449
614.75, 13684.937
614.94, 13525.605
615.14, 13450.649
615.33, 14174.401
615.52, 14189.147
615.72, 13537.073
615.91, 13548.952
616.10, 14020.394
616.30, 14173.992
616.49, 13777.915
616.68, 13611.210
616.88, 14416.062
617.07, 14514.774
617.26, 13521.918
617.45, 13850.822
617.65, 14694.995
617.84, 13866.387
618.03, 13710.332
618.23, 13806.586
618.42, 14341.925
618.61, 13989.265
618.80, 13858.605
619.00, 13884.819
619.19, 14529.519
619.38, 14363.224
619.58, 13845.907
619.77, 14040.055
619.96, 14742.917
620.15, 14348.479
620.35, 14196.519
620.54, 14059.305
620.73, 14355.851
620.93, 14540.988
621.12, 14047.427
621.31, 14259.187
621.50, 14436.541
621.70, 15093.939
621.89, 14136.719
622.08, 13884.819
622.27, 14604.884
622.47, 14690.080
622.66, 13982.302
622.85, 14178.088
623.04, 14437.360
623.24, 14366.501
623.43, 14188.328
623.62, 14101.903
623.81, 14525.014
624.01, 14493.884
624.20, 13970.833
624.39, 13990.903
624.58, 14310.386
624.78, 14474.634
624.97, 13831.571
625.16, 13793.479
625.35, 14383.704
625.55, 14422.615
625.74, 13934.789
625.93, 13779.963
626.12, 14149.826
626.32, 13900.793
626.51, 13715.656
626.70, 13717.704
626.89, 14023.261
627.09, 14103.951
627.28, 13519.461
627.47, 13595.236
627.66, 14187.918
627.85, 13974.110
628.05, 13302.786
628.24, 13448.601
628.43, 14037.187
628.62, 14090.435
628.82, 13349.480
629.01, 13546.084
629.20, 13829.523
629.39, 13905.708
629.58, 13222.505
629.78, 13237.251
629.97, 13719.343
630.16, 13637.424
630.35, 13353.166
630.54, 13207.760
630.74, 13420.749
630.93, 13439.590
631.12, 13175.402
631.31, 13080.376
631.50, 13698.863
631.70, 13851.641
631.89, 13006.240
632.08, 13203.255
632.27, 13153.284
632.46, 13656.265
632.65, 13070.956
632.85, 12894.011
633.04, 13301.557
633.23, 13532.977
633.42, 12703.141
633.61, 12982.074
633.81, 13285.992
634.00, 13184.823
634.19, 12676.517
634.38, 12753.930
634.57, 12966.100
634.76, 12855.919
634.96, 12472.539
635.15, 12440.181
635.34, 13102.904
635.53, 13090.207
635.72, 12497.115
635.91, 12230.879
636.11, 12941.934
636.30, 12941.115
636.49, 12428.713
636.68, 12294.366
636.87, 12581.901
637.06, 13178.269
637.26, 12263.646
637.45, 12244.805
637.64, 12570.023
637.83, 12622.860
638.02, 12088.340
638.21, 12151.418
638.40, 12975.111
638.60, 12866.978
638.79, 12223.916
638.98, 11865.931
639.17, 12461.071
639.36, 12163.706
639.55, 12005.193
639.74, 11951.126
639.93, 12290.680
640.13, 12298.462
640.32, 11701.684
640.51, 11706.189
640.70, 12378.333
640.89, 12140.768
641.08, 11735.271
641.27, 11525.968
641.46, 12170.259
641.66, 12209.580
641.85, 11571.433
642.04, 11421.522
642.23, 12238.252
642.42, 11768.038
642.61, 11465.348
642.80, 11383.020
642.99, 11786.879
643.18, 12002.326
643.38, 11293.728
643.57, 11437.496
643.76, 11534.979
643.95, 11920.407
644.14, 11365.407
644.33, 11295.367
644.52, 11999.049
644.71, 11625.909
644.90, 11211.810
645.09, 11129.891
645.29, 11826.200
645.48, 11619.356
645.67, 11334.278
645.86, 11360.083
646.05, 11729.127
646.24, 12007.241
646.43, 11095.076
646.62, 11228.193
646.81, 11511.632
647.00, 11574.300
647.19, 11146.275
647.38, 11240.072
647.57, 11682.843
647.77, 11727.079
647.96, 11375.238
648.15, 11095.485
648.34, 11848.728
648.53, 11903.204
648.72, 11219.592
648.91, 11374.009
649.10, 11748.787
649.29, 11328.134
649.48, 11092.208
649.67, 11177.404
649.86, 11849.957
650.05, 11195.016
650.24, 11059.850
650.43, 11298.234
650.62, 11432.990
650.81, 11779.916
651.01, 10975.065
651.20, 10837.031
651.39, 11383.839
651.58, 11548.496
651.77, 10662.954
651.96, 10744.873
652.15, 11240.481
652.34, 11054.116
652.53, 10879.220
652.72, 10681.795
652.91, 11269.562
653.10, 11029.950
653.29, 10503.622
653.48, 10471.674
653.67, 11009.470
653.86, 10773.954
654.05, 10383.611
654.24, 10337.327
654.43, 10724.803
654.62, 10601.105
654.81, 10231.652
655.00, 10115.737
655.19, 10569.976
655.38, 10702.275
655.57, 10103.449
655.76, 10152.600
655.95, 10617.899
656.14, 10310.294
656.33, 10153.419
656.52, 9999.003
656.71, 10354.940
656.90, 10409.416
657.09, 9996.955
657.28, 10012.110
657.47, 10412.283
657.66, 10630.596
657.85, 9889.232
658.04, 10068.634
658.23, 10211.991
658.42, 10703.504
658.61, 10075.187
658.80, 9936.335
658.99, 10414.740
659.18, 10853.006
659.37, 9940.431
659.56, 10028.493
659.75, 10439.726
659.94, 10282.851
660.13, 9834.346
660.32, 10032.999
660.51, 10411.873
660.70, 10268.106
660.89, 10000.231
661.08, 9858.922
661.27, 10554.002
661.46, 10199.294
661.65, 9968.693
661.84, 9949.442
662.03, 10412.283
662.22, 10434.810
662.41, 9750.379
662.60, 9654.125
662.78, 10200.113
662.97, 10339.785
663.16, 9736.043
663.35, 9754.885
663.54, 10302.512
663.73, 10463.072
663.92, 9745.054
664.11, 9792.567
664.30, 10104.268
664.49, 10427.438
664.68, 9729.080
664.87, 9827.792
665.06, 10210.763
665.25, 10276.707
665.44, 9823.287
665.63, 9831.069
665.82, 10335.689
666.01, 10649.438
666.19, 9836.394
666.38, 9888.412
666.57, 10557.688
666.76, 10208.715
666.95, 9915.446
667.14, 9701.638
667.33, 10147.685
667.52, 10535.161
667.71, 9960.501
667.90, 9935.106
668.09, 10332.412
668.28, 10014.977
668.46, 9668.870
668.65, 9826.973
668.84, 10499.117
669.03, 9903.158
669.22, 9436.221
669.41, 9658.221
669.60, 10605.611
669.79, 9749.970
669.98, 9668.051
670.17, 9494.383
670.35, 10052.250
670.54, 9892.508
670.73, 9493.974
670.92, 9574.254
671.11, 10012.110
671.30, 9645.933
671.49, 9502.985
671.68, 9449.737
671.87, 10097.305
672.05, 10063.718
672.24, 9359.627
672.43, 9581.627
672.62, 9727.852
672.81, 10072.320
673.00, 9425.162
673.19, 9242.073
673.38, 9806.084
673.57, 9622.586
673.75, 9562.376
673.94, 9253.542
674.13, 9746.693
674.32, 9623.405
674.51, 9257.228
674.70, 9326.859
674.89, 9241.254
675.07, 9689.350
675.26, 9425.162
675.45, 9348.158
675.64, 9697.542
675.83, 9781.508
676.02, 9317.848
676.21, 9299.416
676.39, 9519.778
676.58, 9212.583
676.77, 8795.207
676.96, 8954.129
677.15, 9482.505
677.34, 9737.272
677.52, 8970.922
677.71, 8923.409
677.90, 9421.885
678.09, 9491.926
678.28, 8901.701
678.47, 9103.221
678.65, 9388.298
678.84, 9752.427
679.03, 8957.815
679.22, 8856.236
679.41, 9323.583
679.60, 9303.103
679.78, 9090.933
679.97, 9005.738
680.16, 9725.804
680.35, 9607.841
680.54, 9337.509
680.73, 8995.908
680.91, 9580.398
681.10, 9762.667
681.29, 9219.136
681.48, 9233.882
681.67, 9788.062
681.85, 9517.320
682.04, 9199.885
682.23, 9257.228
682.42, 9692.626
682.61, 9428.439
682.79, 9272.793
682.98, 9437.450
683.17, 9713.516
683.36, 9543.534
683.55, 9250.675
683.73, 9356.760
683.92, 9562.376
684.11, 9616.032
684.30, 9367.819
684.49, 9297.369
684.67, 9578.759
684.86, 9437.040
685.05, 9126.978
685.24, 9274.841
685.42, 9809.770
685.61, 9481.686
685.80, 9149.096
685.99, 9223.232
686.18, 9478.409
686.36, 9352.664
686.55, 9301.055
686.74, 9151.553
686.93, 9510.767
687.11, 9625.863
687.30, 8948.395
687.49, 8989.354
687.68, 9571.387
687.86, 9520.597
688.05, 9169.575
688.24, 9110.184
688.43, 9868.752
688.61, 9479.228
688.80, 9041.372
688.99, 8969.284
689.18, 9722.936
689.36, 9561.147
689.55, 8938.974
689.74, 8639.971
689.93, 9432.534
690.11, 9166.708
690.30, 8891.871
690.49, 8795.207
690.68, 9556.232
690.86, 9101.992
691.05, 8619.900
691.24, 8633.417
691.43, 9056.937
691.61, 9281.804
691.80, 8562.557
691.99, 8401.177
692.17, 9094.210
692.36, 8792.339
692.55, 8562.148
692.74, 8228.738
692.92, 8687.483
693.11, 8685.435
693.30, 8458.111
693.49, 8257.410
693.67, 8523.646
693.86, 8683.797
694.05, 8235.702
694.23, 8241.845
694.42, 8927.505
694.61, 8355.303
694.79, 8072.274
694.98, 7969.875
695.17, 8628.502
695.36, 8033.362
695.54, 8089.067
695.73, 7813.001
695.92, 8342.196
696.10, 8440.498
696.29, 7700.772
696.48, 8013.702
696.66, 8670.280
696.85, 7971.514
697.04, 7723.300
697.22, 7708.964
697.41, 8388.890
697.60, 7892.052
697.79, 7604.518
697.97, 7684.388
698.16, 8317.211
698.35, 7959.635
698.53, 7618.444
698.72, 7594.687
698.91, 8489.240
699.09, 7967.418
699.28, 7633.189
699.47, 7668.005
699.65, 7796.207
699.84, 8213.174
700.03, 7613.938
700.21, 7541.440
700.40, 7734.768
700.59, 7969.875
700.77, 7567.654
700.96, 7441.499
701.15, 8115.691
701.33, 8063.672
701.52, 7296.503
701.70, 7546.765
701.89, 8148.458
702.08, 7705.687
702.26, 7303.466
702.45, 7235.474
702.64, 7430.440
702.82, 7771.632
703.01, 7291.998
703.20, 7249.809
703.38, 8121.834
703.57, 7509.492
703.76, 7337.462
703.94, 7260.459
704.13, 7541.440
704.31, 7343.606
704.50, 7370.230
704.69, 7329.271
704.87, 7507.853
705.06, 7594.278
705.25, 7194.514
705.43, 7062.215
705.62, 7613.529
705.80, 7599.602
705.99, 7298.961
706.18, 7090.887
706.36, 7492.289
706.55, 7328.042
706.73, 7086.381
706.92, 7056.481
707.11, 7645.477
707.29, 7732.720
707.48, 7270.289
707.66, 7171.577
707.85, 7337.053
708.04, 7451.330
708.22, 7119.559
708.41, 7172.396
708.59, 7824.879
708.78, 7583.219
708.97, 7019.618
709.15, 7348.931
709.34, 7638.923
709.52, 7600.831
709.71, 7243.256
709.90, 7119.149
710.08, 7916.218
710.27, 7390.710
710.45, 7333.366
710.64, 7294.046
710.82, 7826.108
711.01, 7602.060
711.20, 7384.566
711.38, 7218.271
711.57, 7726.167
711.75, 7525.876
711.94, 7511.949
712.12, 7418.152
712.31, 7659.813
712.50, 7951.853
712.68, 7316.164
712.87, 7490.651
713.05, 7704.049
713.24, 7494.337
713.42, 7288.311
713.61, 7293.636
713.79, 7857.646
713.98, 7466.075
714.17, 7280.529
714.35, 7240.798
714.54, 7550.451
714.72, 7489.831
714.91, 7241.208
715.09, 7330.090
715.28, 7376.783
715.46, 7952.672
715.65, 7110.138
715.83, 7083.105
716.02, 7729.853
716.21, 7644.658
716.39, 7047.470
716.58, 6905.341
716.76, 7379.241
716.95, 7586.905
717.13, 6865.201
717.32, 6831.614
717.50, 7683.979
717.69, 7376.783
717.87, 6756.249
718.06, 6714.880
718.24, 6976.610
718.43, 7237.522
718.61, 6788.607
718.80, 6724.301
718.98, 7126.112
719.17, 7005.691
719.35, 6655.489
719.54, 6630.504
719.72, 6785.330
719.91, 6913.942
720.09, 6356.895
720.28, 6558.825
720.46, 6829.566
720.65, 7251.038
720.83, 6379.013
721.02, 6537.935
721.20, 7041.736
721.39, 6703.002
721.57, 6314.707
721.76, 6447.415
721.94, 6777.138
722.13, 6676.378
722.31, 6407.275
722.50, 6376.146
722.68, 6632.142
722.87, 6961.865
723.05, 6266.375
723.24, 6951.625
723.42, 6525.648
723.61, 7025.352
723.79, 6072.227
723.98, 6206.164
724.16, 6845.131
724.34, 6471.172
724.53, 6389.662
724.71, 6416.696
724.90, 6532.611
725.08, 6709.146
725.27, 6161.928
725.45, 6139.810
725.64, 6461.751
725.82, 6942.614
726.01, 6007.512
726.19, 6233.198
726.38, 6602.242
726.56, 6381.880
726.74, 6469.124
726.93, 6219.681
727.11, 7353.437
727.30, 6622.312
727.48, 6337.235
727.67, 6317.984
727.85, 6863.972
728.04, 6969.238
728.22, 6335.596
728.40, 6428.574
728.59, 6802.123
728.77, 6810.725
728.96, 6274.976
729.14, 6340.511
729.33, 7374.735
729.51, 6893.463
729.69, 6528.924
729.88, 6429.393
730.06, 6941.795
730.25, 6954.492
730.43, 6467.076
730.61, 6630.913
730.80, 6875.850
730.98, 7283.806
731.17, 6564.969
731.35, 6550.223
731.54, 6990.537
731.72, 7220.728
731.90, 6593.640
732.09, 6640.743
732.27, 7282.167
732.46, 7296.913
732.64, 6644.430
732.82, 6570.703
733.01, 7105.632
733.19, 7181.407
733.38, 6449.463
733.56, 6754.611
733.74, 7112.595
733.93, 7130.208
734.11, 6556.777
734.29, 6442.500
734.48, 7006.920
734.66, 6858.647
734.85, 6286.035
735.03, 6350.751
735.21, 6870.935
735.40, 7136.762
735.58, 6449.463
735.77, 6313.888
735.95, 6898.788
736.13, 6536.297
736.32, 6137.762
736.50, 6297.504
736.68, 6445.367
736.87, 6931.555
737.05, 6203.297
737.23, 6146.773
737.42, 6671.873
737.60, 6538.345
737.79, 6130.799
737.97, 6120.150
738.15, 6743.961
738.34, 6551.862
738.52, 6141.039
738.70, 6225.415
738.89, 6737.408
739.07, 6486.327
739.25, 6227.463
739.44, 6162.338
739.62, 6789.836
739.80, 6312.249
739.99, 5937.471
740.17, 6202.069
740.35, 6918.448
740.54, 6718.976
740.72, 6010.788
740.90, 5972.696
741.09, 6247.124
741.27, 6458.474
741.45, 6100.489
741.64, 5934.194
741.82, 6533.840
742.00, 6389.662
742.19, 6030.858
742.37, 6032.087
742.55, 6308.563
742.74, 6333.139
742.92, 5874.394
743.10, 6052.157
743.29, 6528.924
743.47, 6499.024
743.65, 5799.028
743.83, 5910.847
744.02, 6251.629
744.20, 6084.925
744.38, 5651.575
744.57, 5715.881
744.75, 5919.039
744.93, 6058.301
745.12, 5668.368
745.30, 5719.977
745.48, 6607.976
745.66, 5801.076
745.85, 5546.309
746.03, 5619.626
746.21, 6304.467
746.40, 6090.249
746.58, 5727.759
746.76, 5595.460
746.94, 6261.050
747.13, 6179.131
747.31, 5636.420
747.49, 5725.711
747.68, 6071.408
747.86, 6233.198
748.04, 5611.844
748.22, 5567.608
748.41, 6250.401
748.59, 6315.116
748.77, 5508.626
748.95, 5686.390
749.14, 5933.785
749.32, 6093.936
749.50, 5639.696
749.68, 5479.136
749.87, 5889.958
750.05, 6012.427
750.23, 5557.778
750.42, 5634.781
750.60, 5968.600
750.78, 5892.416
750.96, 5650.346
751.15, 5631.095
751.33, 5594.231
751.51, 6106.633
751.69, 5510.674
751.87, 5512.722
752.06, 5626.999
752.24, 5869.069
752.42, 5413.191
752.60, 5273.520
752.79, 6132.847
752.97, 5856.781
753.15, 5356.257
753.33, 5378.376
753.52, 5682.294
753.70, 5831.386
753.88, 5301.781
754.06, 5400.494
754.24, 5653.623
754.43, 5994.405
754.61, 5288.265
754.79, 5263.689
754.97, 5644.202
755.16, 5914.534
755.34, 5403.770
755.52, 5395.988
755.70, 5761.755
755.88, 5502.482
756.07, 5291.132
756.25, 5291.542
756.43, 5905.523
756.61, 5495.519
756.79, 5364.859
756.98, 5289.903
757.16, 5883.405
757.34, 5566.379
757.52, 5417.697
757.70, 5448.826
757.89, 6081.238
758.07, 6415.057
758.25, 5520.914
758.43, 5389.025
758.61, 5960.818
758.80, 6085.744
758.98, 5659.357
759.16, 5585.220
759.34, 6157.013
759.52, 5916.172
759.70, 5688.848
759.89, 5648.298
760.07, 5984.984
760.25, 6114.415
760.43, 5622.903
760.61, 5771.176
760.79, 6178.312
760.98, 6240.980
761.16, 5996.043
761.34, 6163.567
761.52, 6233.198
761.70, 6695.219
761.88, 6403.589
762.07, 6431.851
762.25, 7257.592
762.43, 7081.876
762.61, 6782.872
762.79, 6841.854
762.97, 7369.001
763.15, 7365.315
763.34, 7026.581
763.52, 7176.492
763.70, 8000.185
763.88, 7980.525
764.06, 7524.647
764.24, 7226.053
764.42, 8014.930
764.61, 7781.462
764.79, 7333.776
764.97, 7518.503
765.15, 7649.573
765.33, 7978.886
765.51, 7336.643
765.69, 7392.348
765.87, 7730.263
766.06, 7650.392
766.24, 6875.850
766.42, 6756.249
766.60, 7196.153
766.78, 7336.234
766.96, 6675.149
767.14, 6426.936
767.32, 6881.585
767.50, 6411.781
767.69, 6120.150
767.87, 6131.209
768.05, 6603.880
768.23, 6125.884
768.41, 5928.460
768.59, 5589.316
768.77, 6110.729
768.95, 6001.368
769.13, 5522.962
769.32, 5449.645
769.50, 6001.777
769.68, 5877.261
769.86, 5436.947
770.04, 5265.328
770.22, 5429.165
770.40, 5631.914
770.58, 5176.036
770.76, 5166.206
770.94, 5846.541
771.12, 5384.929
771.30, 5108.044
771.49, 5249.354
771.67, 5604.881
771.85, 5481.184
772.03, 5084.697
772.21, 5070.361
772.39, 5414.829
772.57, 5595.870
772.75, 4915.125
772.93, 5089.202
773.11, 5544.261
773.29, 5384.519
773.47, 4964.276
773.65, 4971.649
773.83, 5471.353
774.01, 5097.394
774.19, 4802.077
774.38, 4987.623
774.56, 5361.173
774.74, 5363.221
774.92, 4724.254
775.10, 4784.465
775.28, 4913.077
775.46, 5368.545
775.64, 4583.764
775.82, 4645.612
776.00, 4722.616
776.18, 4938.881
776.36, 4552.225
776.54, 4815.184
776.72, 4941.749
776.90, 4988.852
777.08, 4562.874
777.26, 4599.738
777.44, 4934.376
777.62, 5164.977
777.80, 4503.483
777.98, 4623.085
778.16, 4841.808
778.34, 5053.977
778.52, 4605.472
778.70, 4482.594
778.88, 4786.513
779.06, 4654.623
779.24, 4430.985
779.42, 4560.417
779.60, 5090.431
779.78, 4899.151
779.96, 4274.520
780.14, 4346.199
780.32, 4826.653
780.50, 4988.442
780.68, 4376.100
780.86, 4371.184
781.04, 4738.180
781.22, 4602.605
781.40, 4433.852
781.58, 4298.686
781.76, 4711.147
781.94, 4796.752
782.12, 4333.092
782.30, 4463.753
782.48, 4869.250
782.66, 4848.771
782.84, 4368.317
783.02, 4349.886
783.20, 4821.738
783.38, 4850.409
783.56, 4151.642
783.74, 4177.447
783.92, 4563.694
784.10, 4725.483
784.28, 4266.329
784.46, 4297.867
784.64, 4715.243
784.82, 4626.771
785.00, 4129.524
785.18, 4054.569
785.36, 4820.918
785.54, 4349.476
785.72, 4225.779
785.90, 4158.605
786.08, 4384.701
786.26, 4574.343
786.43, 4284.760
786.61, 4274.111
786.79, 5000.320
786.97, 5000.320
787.15, 4241.343
787.33, 4198.746
787.51, 4453.922
787.69, 4916.354
787.87, 4276.159
788.05, 4293.771
788.23, 5368.955
788.41, 4529.697
788.59, 4392.483
788.77, 4360.945
788.95, 4811.498
789.13, 4768.081
789.30, 4392.074
789.48, 4250.354
789.66, 4849.590
789.84, 4799.620
790.02, 4348.657
790.20, 4163.930
790.38, 4873.346
790.56, 4612.435
790.74, 4297.458
790.92, 4366.269
791.10, 4961.409
791.28, 4873.756
791.45, 4474.402
791.63, 4120.923
791.81, 5084.697
791.99, 4832.387
792.17, 4169.255
792.35, 4181.543
792.53, 4181.133
792.71, 4772.586
792.89, 4092.251
793.07, 4284.760
793.24, 4514.542
793.42, 4802.896
793.60, 4073.819
793.78, 4041.462
793.96, 4428.937
794.14, 4507.170
794.32, 4039.414
794.50, 4099.624
794.67, 4517.819
794.85, 4343.332
795.03, 4146.727
795.21, 4092.661
795.39, 4523.553
795.57, 4533.384
795.75, 4118.056
795.93, 4168.436
796.10, 4918.402
796.28, 4343.742
796.46, 3992.720
796.64, 4075.048
796.82, 4708.690
797.00, 4650.937
797.18, 4063.580
797.35, 4014.428
797.53, 4478.908
797.71, 4530.926
797.89, 4232.742
798.07, 4077.506
798.25, 4479.317
798.43, 4709.919
798.60, 4058.664
798.78, 4083.650
798.96, 4854.505
799.14, 4254.041
799.32, 3875.166
799.50, 4019.753
799.67, 4362.173
799.85, 4326.948
800.03, 3980.432
800.21, 3967.325
800.39, 4434.672
800.57, 4437.948
800.74, 3924.318
800.92, 3932.510
801.10, 4260.185
801.28, 4016.886
801.46, 3744.096
801.64, 3795.296
801.81, 4576.801
801.99, 4172.122
802.17, 3922.679
802.35, 3930.871
802.53, 4137.716
802.70, 3664.226
802.88, 3741.639
803.06, 3723.617
803.24, 4244.620
803.42, 4274.930
803.59, 3708.462
803.77, 3561.827
803.95, 4513.723
804.13, 4316.709
804.31, 3774.816
804.48, 3774.406
804.66, 4303.602
804.84, 3935.377
805.02, 3828.473
805.20, 3850.181
805.37, 4078.735
805.55, 4205.709
805.73, 3783.008
805.91, 3860.831
806.08, 4364.631
806.26, 4168.845
806.44, 3702.728
806.62, 3658.082
806.80, 4150.823
806.97, 4077.096
807.15, 3787.513
807.33, 3921.451
807.51, 4301.963
807.68, 3716.654
807.86, 3781.370
808.04, 3743.687
808.22, 4187.277
808.39, 5722.844
808.57, 3735.495
808.75, 3841.580
808.93, 4195.878
809.10, 3988.214
809.28, 3757.203
809.46, 3682.248
809.64, 4423.612
809.81, 3961.181
809.99, 3764.576
810.17, 3606.883
810.35, 4666.092
810.52, 4158.196
810.70, 3813.318
810.88, 3775.226
811.06, 4145.908
811.23, 4407.638
811.41, 3626.953
811.59, 3504.484
811.77, 4290.495
811.94, 3911.211
812.12, 3854.277
812.30, 3687.163
812.47, 4205.299
812.65, 4251.583
812.83, 3731.399
813.01, 3667.093
813.18, 3978.794
813.36, 4222.092
813.54, 3602.787
813.71, 3693.307
813.89, 4620.627
814.07, 4170.074
814.25, 3880.901
814.42, 3779.322
814.60, 4467.439
814.78, 4306.469
814.95, 3588.860
815.13, 3805.536
815.31, 4084.469
815.49, 4342.923
815.66, 3725.255
815.84, 3853.458
816.02, 4381.834
816.19, 4210.214
816.37, 3868.203
816.55, 3953.399
816.72, 4539.528
816.90, 4151.642
817.08, 3791.609
817.25, 3842.809
817.43, 4547.719
817.61, 4327.768
817.78, 4070.543
817.96, 4142.631
818.14, 4304.011
818.31, 4626.361
818.49, 4145.498
818.67, 4187.277
818.84, 4469.077
819.02, 4481.775
819.20, 4283.941
819.37, 4505.122
819.55, 4971.239
819.73, 5264.508
819.90, 4896.693
820.08, 5364.859
820.26, 5806.401
820.43, 6141.449
820.61, 5837.940
820.79, 6044.785
820.96, 6822.193
821.14, 6915.171
821.32, 6943.843
821.49, 7214.584
821.67, 7907.207
821.85, 8078.418
822.02, 7962.912
822.20, 8046.469
822.37, 8980.343
822.55, 8625.225
822.73, 8855.007
822.90, 8893.100
823.08, 9776.184
823.26, 9367.409
823.43, 9371.095
823.61, 9242.893
823.78, 9764.305
823.96, 9496.022
824.14, 9298.188
824.31, 9194.561
824.49, 9845.815
824.67, 9808.951
824.84, 8904.978
825.02, 8874.258
825.19, 9117.557
825.37, 9371.095
825.55, 8363.495
825.72, 8192.694
825.90, 8261.916
826.07, 8271.336
826.25, 7960.864
826.43, 7527.924
826.60, 7671.691
826.78, 7846.178
826.95, 7373.097
827.13, 7205.164
827.31, 7808.495
827.48, 7554.138
827.66, 6910.666
827.83, 7095.393
828.01, 7150.278
828.19, 7097.440
828.36, 6576.847
828.54, 6676.788
828.71, 6734.131
828.89, 6682.112
829.06, 6209.851
829.24, 6362.629
829.42, 6249.581
829.59, 6515.408
829.77, 5767.080
829.94, 5514.361
830.12, 5864.973
830.29, 5509.036
830.47, 5138.354
830.65, 4926.594
830.82, 5722.025
831.00, 5219.863
831.17, 4714.014
831.35, 4726.302
831.52, 5067.494
831.70, 5107.634
831.87, 4426.070
832.05, 4492.424
832.23, 5040.870
832.40, 5033.088
832.58, 4750.878
832.75, 4735.313
832.93, 5023.667
833.10, 5058.892
833.28, 4918.811
833.45, 4791.428
833.63, 5335.778
833.80, 4903.247
833.98, 4928.642
834.15, 4960.590
834.33, 5345.198
834.51, 5269.014
834.68, 4835.664
834.86, 4748.011
835.03, 5271.881
835.21, 5207.985
835.38, 4836.893
835.56, 4804.535
835.73, 5236.656
835.91, 5318.165
836.08, 4561.646
836.26, 4691.896
836.43, 5049.062
836.61, 4989.261
836.78, 4347.428
836.96, 4152.052
837.13, 5064.627
837.31, 4676.741
837.48, 4202.432
837.66, 3916.945
837.83, 4408.458
838.01, 4467.029
838.18, 3626.543
838.36, 3615.074
838.53, 4161.063
838.71, 4566.151
838.88, 3652.757
839.06, 3685.525
839.23, 4245.030
839.41, 4200.384
839.58, 3697.812
839.76, 3522.916
839.93, 4414.192
840.11, 4352.343
840.28, 3606.063
840.46, 3685.525
840.63, 3889.093
840.81, 4112.321
840.98, 3480.318
841.15, 3528.241
841.33, 4193.421
841.50, 3974.288
841.68, 3600.329
841.85, 3621.218
842.03, 4403.133
842.20, 4257.317
842.38, 3350.477
842.55, 3352.115
842.73, 4027.945
842.90, 3834.617
843.08, 3370.547
843.25, 3404.134
843.42, 3775.226
843.60, 3990.672
843.77, 3092.023
843.95, 3128.067
844.12, 3298.458
844.30, 3890.321
844.47, 2999.455
844.64, 2940.883
844.82, 4092.251
844.99, 3530.698
845.17, 3057.208
845.34, 2781.551
845.52, 3527.012
845.69, 3614.255
845.87, 2961.772
846.04, 2893.780
846.21, 3445.912
846.39, 3508.580
846.56, 2908.525
846.74, 2831.112
846.91, 3395.942
847.08, 3297.230
847.26, 2726.256
847.43, 2787.695
847.61, 3370.137
847.78, 3687.163
847.95, 2859.374
848.13, 2813.499
848.30, 3396.351
848.48, 3310.337
848.65, 2854.868
848.83, 2804.488
849.00, 3286.171
849.17, 3377.920
849.35, 2784.418
849.52, 2674.238
849.69, 3517.182
849.87, 3187.868
850.04, 2716.835
850.22, 2619.762
850.39, 3246.850
850.56, 3592.956
850.74, 2654.577
850.91, 2666.046
851.09, 3188.687
851.26, 3361.945
851.43, 2570.610
851.61, 2804.898
851.78, 3136.669
851.95, 3283.304
852.13, 2635.326
852.30, 2625.086
852.48, 3884.178
852.65, 3324.263
852.82, 2693.079
853.00, 2654.577
853.17, 3482.776
853.34, 2950.304
853.52, 2690.621
853.69, 2523.917
853.86, 3458.610
854.04, 3329.997
854.21, 2721.750
854.38, 2624.267
854.56, 3124.791
854.73, 3067.448
854.90, 2757.385
855.08, 2639.832
855.25, 3346.791
855.42, 2872.071
855.60, 2791.381
855.77, 2751.651
855.95, 3374.233
856.12, 3366.451
856.29, 2540.710
856.46, 2745.917
856.64, 3191.964
856.81, 3357.850
856.98, 2757.795
857.16, 2670.961
857.33, 3083.012
857.50, 3401.266
857.68, 2609.931
857.85, 2678.743
858.02, 3122.333
858.20, 3130.115
858.37, 2713.559
858.54, 2568.972
858.72, 3965.277
858.89, 3464.754
859.06, 2654.577
859.24, 2595.186
859.41, 3393.484
859.58, 3375.462
859.75, 2665.636
859.93, 2631.230
860.10, 3343.514
860.27, 3402.905
860.45, 2671.780
860.62, 2672.190
860.79, 3293.543
860.97, 3370.547
861.14, 2711.920
861.31, 2734.038
861.48, 3239.887
861.66, 2987.167
861.83, 2558.732
862.00, 2567.334
862.17, 3038.366
862.35, 3414.374
862.52, 2641.880
862.69, 2741.001
862.87, 3318.119
863.04, 3364.403
863.21, 2567.743
863.38, 2673.828
863.56, 3379.558
863.73, 3149.776
863.90, 2621.400
864.07, 2881.902
864.25, 3616.303
864.42, 3115.370
864.59, 2572.249
864.76, 2639.422
864.94, 3537.252
865.11, 3130.935
865.28, 2589.042
865.45, 2678.334
865.63, 3276.750
865.80, 3110.455
865.97, 2648.433
866.14, 2635.326
866.32, 3414.783
866.49, 3157.558
866.66, 2831.931
866.83, 2645.566
867.01, 3219.816
867.18, 3231.695
867.35, 2580.850
867.52, 2578.802
867.70, 3583.945
867.87, 3685.525
868.04, 2636.555
868.21, 2684.477
868.38, 3393.894
868.56, 3564.285
868.73, 2666.455
868.90, 2625.086
869.07, 3260.776
869.24, 3348.019
869.42, 2692.669
869.59, 2901.972
869.76, 3644.156
869.93, 3210.805
870.11, 2784.828
870.28, 2691.031
870.45, 3622.857
870.62, 3386.521
870.79, 2740.592
870.97, 2807.356
871.14, 3494.244
871.31, 3481.137
871.48, 2782.780
871.65, 2926.547
871.82, 3693.716
872.00, 3442.226
872.17, 2692.669
872.34, 2772.540
872.51, 3276.750
872.68, 3477.861
872.86, 2966.688
873.03, 2721.341
873.20, 3427.071
873.37, 3848.543
873.54, 2663.179
873.71, 2779.503
873.89, 3756.794
874.06, 3514.314
874.23, 2755.747
874.40, 2843.400
874.57, 3773.587
874.74, 3461.886
874.92, 2876.577
875.09, 2663.179
875.26, 3672.418
875.43, 3525.783
875.60, 2743.869
875.77, 2884.359
875.95, 3212.034
876.12, 3511.447
876.29, 2746.736
876.46, 2946.208
876.63, 3400.447
876.80, 3532.337
876.97, 3080.145
877.15, 2797.116
877.32, 3723.207
877.49, 3421.746
877.66, 3192.374
877.83, 3048.197
878.00, 3383.654
878.17, 4085.288
878.34, 2980.204
878.52, 3115.370
878.69, 3644.156
878.86, 3495.063
879.03, 3040.824
879.20, 3117.828
879.37, 3906.296
879.54, 4422.793
879.71, 3295.591
879.89, 3457.790
880.06, 4420.336
880.23, 4124.199
880.40, 3655.215
880.57, 3828.882
880.74, 4287.627
880.91, 4736.542
881.08, 3968.144
881.25, 4151.233
881.42, 4806.583
881.60, 4651.756
881.77, 4130.753
881.94, 4186.048
882.11, 4679.199
882.28, 4892.597
882.45, 4263.871
882.62, 4383.882
882.79, 5267.376
882.96, 5031.450
883.13, 4301.554
883.30, 4632.096
883.48, 5181.361
883.65, 4887.682
883.82, 4267.148
883.99, 4384.701
884.16, 5210.442
884.33, 4745.553
884.50, 4227.008
884.67, 4326.539
884.84, 4730.808
885.01, 4570.247
885.18, 4061.532
885.35, 3937.425
885.52, 4109.454
885.69, 4382.653
885.87, 3703.547
886.04, 3684.296
886.21, 4364.221
886.38, 4350.295
886.55, 3475.813
886.72, 3409.049
886.89, 4184.000
887.06, 3922.679
887.23, 3361.946
887.40, 3336.960
887.57, 3844.447
887.74, 3893.189
887.91, 2994.130
888.08, 3034.270
888.25, 3812.499
888.42, 4138.535
888.59, 3105.949
888.76, 3030.175
888.93, 3603.606
889.10, 3345.562
889.27, 3002.322
889.44, 3022.802
889.61, 3397.990
889.78, 3447.960
889.95, 3035.909
890.12, 3000.684
890.29, 3571.658
890.46, 3355.392
890.63, 2813.909
890.80, 2791.791
890.97, 3327.949
891.15, 3532.746
891.32, 2802.850
891.49, 2920.813
891.66, 3777.683
891.83, 3418.060
892.00, 2894.189
892.17, 2948.256
892.34, 3507.351
892.51, 3594.595
892.68, 2883.540
892.84, 2793.839
893.01, 3306.650
893.18, 3577.392
893.35, 2913.440
893.52, 2886.407
893.69, 3604.835
##END=
##TITLE= SPECTRASUITE EXPORTED SPECTRA: DARK SPECTRUM
##JCAMP-DX= 5 $$EXPORTED SPECTRASUITE FILE
##DATA TYPE= UV/VIS SPECTRUM
##SAMPLE DESCRIPTION= DARK SPECTRUM
##BLOCK_ID=2
##ORIGIN= OCEANOPTICS EXPORT
##OWNER= hugo
##SPECTROMETER/DATA SYSTEM= OCEANOPTICS EXPORT
##DATA PROCESSING= DARK:Yes REFERENCE:Yes
##DATA PROCESSING= BOXCAR:0 ELECTRICAL DARK: false
##.ACQUISITION TIME= 400
##.AVERAGES= 5
##XUNITS= NANOMETERS
##YUNITS= Transmission (%)
##XFACTOR= 1.0
##YFACTOR= 1.0
##FIRSTX= 176.36
##LASTX= 893.69
##FIRSTY= 32822.795
##MINY= 1654.349
##MAXY= 32822.795
##NPOINTS= 3648
##XYPOINTS= (XY..XY)
176.36, 32822.795
176.58, 32822.795
176.80, 32822.795
177.02, 1661.312
177.24, 1654.349
177.47, 2568.562
177.69, 2592.319
177.91, 3137.488
178.13, 2822.101
178.35, 2458.791
178.57, 2432.577
178.79, 2813.499
179.01, 2874.119
179.23, 2301.098
179.46, 2453.057
179.68, 2776.636
179.90, 2666.865
180.12, 2270.378
180.34, 2391.618
180.56, 2675.057
180.78, 3050.654
181.00, 2357.212
181.22, 2487.872
181.44, 2765.167
181.66, 2908.116
181.89, 2462.887
182.11, 2349.020
182.33, 2807.356
182.55, 3334.503
182.77, 2505.485
182.99, 2563.238
183.21, 2470.670
183.43, 2824.968
183.65, 2410.459
183.87, 2265.463
184.09, 3085.060
184.31, 2975.699
184.53, 2339.190
184.76, 2326.083
184.98, 2770.492
185.20, 3071.134
185.42, 2467.393
185.64, 2383.016
185.86, 3120.695
186.08, 3474.584
186.30, 2326.083
186.52, 2312.566
186.74, 3024.850
186.96, 2977.337
187.18, 2444.046
187.40, 2324.445
187.62, 3133.802
187.84, 3143.632
188.06, 2506.714
188.28, 2401.858
188.51, 3090.794
188.73, 3103.901
188.95, 2445.684
189.17, 2521.050
189.39, 2949.075
189.61, 2991.263
189.83, 2480.909
190.05, 2489.920
190.27, 3160.016
190.49, 2986.348
190.71, 2339.190
190.93, 2368.271
191.15, 2616.075
191.37, 3003.141
191.59, 2470.670
191.81, 2507.943
192.03, 2870.843
192.25, 2972.012
192.47, 2319.939
192.69, 2444.865
192.91, 2972.422
193.13, 2930.234
193.35, 2289.629
193.57, 2554.227
193.79, 2654.987
194.01, 3089.975
194.23, 2406.773
194.45, 2316.662
194.67, 3094.071
194.89, 2666.865
195.11, 2319.529
195.33, 2201.976
195.55, 2813.499
195.77, 2935.968
195.99, 2448.961
196.21, 2380.149
196.43, 3000.684
196.65, 2794.658
196.87, 2541.939
197.09, 2385.064
197.31, 3123.152
197.53, 3196.470
197.75, 2491.149
197.97, 2462.478
198.19, 3074.001
198.41, 3336.141
198.63, 2396.533
198.85, 2442.408
199.07, 3082.603
199.29, 2677.514
199.51, 2442.408
199.73, 2525.555
199.95, 2732.810
200.17, 3001.913
200.39, 2490.740
200.61, 2544.396
200.83, 2695.536
201.05, 2978.156
201.27, 2329.360
201.49, 2460.020
201.71, 3171.894
201.93, 3086.289
202.15, 2390.799
202.37, 2401.858
202.59, 2986.348
202.81, 2824.149
203.03, 2483.776
203.25, 2407.592
203.47, 2798.344
203.69, 2921.632
203.91, 2458.791
204.13, 2296.592
204.35, 2695.946
204.57, 3221.045
204.79, 2338.780
205.01, 2346.563
205.23, 3094.890
205.45, 2854.868
205.67, 2227.780
205.89, 2404.315
206.10, 3083.012
206.32, 2602.968
206.54, 2325.264
206.76, 2417.832
206.98, 2911.392
207.20, 2767.215
207.42, 2428.891
207.64, 2308.061
207.86, 2691.031
208.08, 3382.425
208.30, 2387.932
208.52, 2321.577
208.74, 3093.662
208.96, 3067.857
209.18, 2253.994
209.40, 2595.186
209.62, 2753.289
209.83, 2895.828
210.05, 2330.179
210.27, 2362.946
210.49, 2856.916
210.71, 2721.341
210.93, 2421.518
211.15, 2467.393
211.37, 2663.998
211.59, 2720.931
211.81, 2259.729
212.03, 2254.404
212.25, 2995.359
212.47, 2820.053
212.68, 2367.452
212.90, 2424.385
213.12, 2866.337
213.34, 3117.828
213.56, 2280.208
213.78, 2348.611
214.00, 3165.750
214.22, 2610.341
214.44, 2417.013
214.66, 2371.138
214.88, 2824.968
215.09, 2897.466
215.31, 2143.814
215.53, 2394.075
215.75, 3026.898
215.97, 2671.370
216.19, 2483.367
216.41, 2480.090
216.63, 2808.584
216.85, 3186.230
217.06, 2463.706
217.28, 2386.703
217.50, 2697.175
217.72, 3080.964
217.94, 2432.168
218.16, 2339.600
218.38, 2680.382
218.60, 2699.223
218.82, 2410.459
219.03, 2453.467
219.25, 2877.806
219.47, 2909.754
219.69, 2351.068
219.91, 2490.740
220.13, 3294.363
220.35, 2914.260
220.57, 2392.027
220.78, 2604.197
221.00, 2948.256
221.22, 3042.872
221.44, 2376.873
221.66, 2291.677
221.88, 3185.001
222.10, 2633.688
222.31, 2258.910
222.53, 2307.242
222.75, 2661.950
222.97, 2726.256
223.19, 2387.932
223.41, 2423.157
223.63, 2740.182
223.84, 3261.185
224.06, 2419.470
224.28, 2392.847
224.50, 3101.034
224.72, 2825.787
224.94, 2294.954
225.16, 2426.433
225.37, 3300.097
225.59, 2863.470
225.81, 2392.847
226.03, 2450.190
226.25, 3124.381
226.47, 2758.614
226.68, 2378.101
226.90, 2403.496
227.12, 2751.241
227.34, 3080.145
227.56, 2297.411
227.78, 2353.935
227.99, 2845.038
228.21, 2895.009
228.43, 2486.644
228.65, 2424.795
228.87, 2888.455
229.09, 2725.437
229.30, 2445.275
229.52, 2321.577
229.74, 2896.237
229.96, 3104.311
230.18, 2394.485
230.39, 2404.315
230.61, 2949.894
230.83, 2814.728
231.05, 2288.400
231.27, 2436.264
231.49, 2759.433
231.70, 2968.326
231.92, 2348.611
232.14, 2349.839
232.36, 2748.374
232.58, 3042.053
232.79, 2263.415
233.01, 2392.027
233.23, 2873.710
233.45, 2788.105
233.67, 2341.238
233.88, 2406.773
234.10, 3169.846
234.32, 3113.322
234.54, 2370.319
234.75, 2353.116
234.97, 2932.282
235.19, 3197.698
235.41, 2402.677
235.63, 2421.109
235.84, 3203.842
236.06, 2596.824
236.28, 2354.754
236.50, 2290.858
236.72, 2620.171
236.93, 2718.883
237.15, 2382.197
237.37, 2321.577
237.59, 3029.765
237.80, 2701.271
238.02, 2362.946
238.24, 2347.382
238.46, 3018.706
238.67, 3212.034
238.89, 2464.935
239.11, 2467.393
239.33, 2736.496
239.55, 2759.433
239.76, 2446.913
239.98, 2278.160
240.20, 2869.614
240.42, 2808.175
240.63, 2410.869
240.85, 2394.485
241.07, 2935.149
241.29, 3062.532
241.50, 2305.603
241.72, 2469.441
241.94, 2816.776
242.16, 3239.887
242.37, 2414.555
242.59, 2349.430
242.81, 2566.514
243.03, 3070.315
243.24, 2339.190
243.46, 2477.223
243.68, 3093.662
243.90, 2697.994
244.11, 2286.352
244.33, 2358.850
244.55, 2806.946
244.76, 2770.902
244.98, 2480.090
245.20, 2323.216
245.42, 2978.156
245.63, 2728.714
245.85, 2273.655
246.07, 2333.865
246.29, 2925.728
246.50, 2918.355
246.72, 2423.566
246.94, 2460.020
247.15, 2756.156
247.37, 3175.580
247.59, 2306.422
247.81, 2506.304
248.02, 2853.230
248.24, 3013.791
248.46, 2376.873
248.67, 2314.614
248.89, 2974.060
249.11, 3027.717
249.33, 2534.157
249.54, 2336.323
249.76, 2840.123
249.98, 2605.016
250.19, 2329.769
250.41, 2308.061
250.63, 2936.378
250.84, 2749.603
251.06, 2397.352
251.28, 2431.348
251.50, 2601.740
251.71, 2890.913
251.93, 2364.994
252.15, 2318.710
252.36, 2761.481
252.58, 3336.141
252.80, 2414.965
253.01, 2566.514
253.23, 3013.381
253.45, 2801.621
253.66, 2414.555
253.88, 2428.072
254.10, 2770.902
254.31, 3008.876
254.53, 2229.009
254.75, 2430.120
254.97, 3173.942
255.18, 2943.750
255.40, 2371.138
255.62, 2374.415
255.83, 2723.389
256.05, 2972.012
256.27, 2394.075
256.48, 2455.515
256.70, 2942.522
256.92, 3001.913
257.13, 2514.496
257.35, 2280.618
257.57, 3131.754
257.78, 2924.090
258.00, 2543.577
258.21, 2535.385
258.43, 3107.178
258.65, 2909.344
258.86, 2379.740
259.08, 2402.267
259.30, 3047.377
259.51, 3164.112
259.73, 2282.666
259.95, 2487.463
260.16, 3027.307
260.38, 3165.750
260.60, 2268.740
260.81, 2378.101
261.03, 2935.558
261.25, 2603.378
261.46, 2383.426
261.68, 2330.179
261.89, 2774.178
262.11, 2817.186
262.33, 2382.607
262.54, 2153.644
262.76, 2960.544
262.98, 2926.138
263.19, 2352.297
263.41, 2367.042
263.62, 2779.503
263.84, 2881.902
264.06, 2359.260
264.27, 2379.740
264.49, 2865.927
264.71, 2812.271
264.92, 2440.769
265.14, 2482.548
265.35, 2983.890
265.57, 2932.282
265.79, 2381.788
266.00, 2441.179
266.22, 3160.835
266.43, 2664.407
266.65, 2493.197
266.87, 2223.684
267.08, 2529.651
267.30, 2612.389
267.51, 2465.754
267.73, 2387.112
267.95, 3132.573
268.16, 2690.621
268.38, 2412.098
268.59, 2479.681
268.81, 2904.020
269.03, 3014.200
269.24, 2326.902
269.46, 2428.891
269.67, 2841.352
269.89, 2753.699
270.11, 2416.194
270.32, 2426.843
270.54, 2828.654
270.75, 3321.805
270.97, 2304.374
271.19, 2330.179
271.40, 2798.754
271.62, 2643.928
271.83, 2263.825
272.05, 2244.574
272.26, 2869.614
272.48, 2973.241
272.70, 2503.847
272.91, 2477.223
273.13, 2963.001
273.34, 3012.152
273.56, 2451.419
273.77, 2471.079
273.99, 3224.322
274.21, 3316.071
274.42, 2649.252
274.64, 2498.522
274.85, 2838.485
275.07, 2729.533
275.28, 2461.658
275.50, 2601.330
275.71, 2669.732
275.93, 2675.057
276.15, 2575.935
276.36, 2481.729
276.58, 3043.691
276.79, 2808.584
277.01, 2570.610
277.22, 2557.503
277.44, 3381.606
277.65, 3049.425
277.87, 2539.481
278.08, 2459.610
278.30, 3344.333
278.52, 2892.551
278.73, 2614.846
278.95, 2428.891
279.16, 2675.466
279.38, 2894.189
279.59, 2628.363
279.81, 2411.278
280.02, 3101.853
280.24, 3194.422
280.45, 2556.684
280.67, 2404.315
280.88, 2914.669
281.10, 3078.097
281.31, 2604.197
281.53, 2513.267
281.74, 2985.119
281.96, 2764.348
282.17, 2486.234
282.39, 2442.817
282.60, 2648.024
282.82, 2870.023
283.04, 2486.644
283.25, 2487.053
283.47, 2913.031
283.68, 2894.599
283.90, 2553.407
284.11, 2431.348
284.33, 2664.407
284.54, 2779.913
284.76, 2432.168
284.97, 2578.393
285.19, 2815.138
285.40, 3035.090
285.62, 2628.363
285.83, 2434.625
286.05, 2941.293
286.26, 2833.570
286.48, 2535.795
286.69, 2575.525
286.91, 2667.684
287.12, 3253.403
287.33, 2384.245
287.55, 2413.326
287.76, 3000.274
287.98, 2973.241
288.19, 2778.684
288.41, 2293.725
288.62, 2827.426
288.84, 2908.116
289.05, 2310.109
289.27, 2367.861
289.48, 3062.123
289.70, 2647.614
289.91, 2555.865
290.13, 2504.256
290.34, 2963.411
290.56, 2884.769
290.77, 2483.776
290.99, 2424.795
291.20, 2727.894
291.41, 2709.053
291.63, 2453.876
291.84, 2679.562
292.06, 2901.153
292.27, 2761.481
292.49, 2473.537
292.70, 2648.024
292.92, 2913.031
293.13, 2991.263
293.35, 2514.086
293.56, 2491.968
293.77, 2681.610
293.99, 3110.865
294.20, 2416.194
294.42, 2471.898
294.63, 2911.392
294.85, 3132.983
295.06, 2389.160
295.28, 2473.537
295.49, 2533.337
295.70, 3160.016
295.92, 2417.422
296.13, 2620.581
296.35, 3110.045
296.56, 2867.566
296.78, 2359.260
296.99, 2478.452
297.20, 2785.647
297.42, 3018.296
297.63, 2533.337
297.85, 2447.732
298.06, 2709.872
298.28, 2917.946
298.49, 2383.426
298.70, 2482.548
298.92, 3098.577
299.13, 3058.027
299.35, 2565.695
299.56, 2439.131
299.77, 2603.378
299.99, 2785.238
300.20, 2539.481
300.42, 2398.581
300.63, 2865.108
300.85, 3110.045
301.06, 2608.293
301.27, 2461.658
301.49, 2791.791
301.70, 3025.669
301.92, 2481.729
302.13, 2499.751
302.34, 2793.839
302.56, 3090.794
302.77, 2487.872
302.99, 2522.278
303.20, 2874.529
303.41, 2873.710
303.63, 2467.802
303.84, 2443.227
304.05, 2595.186
304.27, 2914.669
304.48, 2562.419
304.70, 2380.559
304.91, 3082.193
305.12, 2908.525
305.34, 2380.968
305.55, 2462.068
305.77, 2641.060
305.98, 2973.651
306.19, 2487.053
306.41, 2565.286
306.62, 2708.234
306.83, 3012.152
307.05, 2462.887
307.26, 2435.854
307.47, 3074.001
307.69, 3112.503
307.90, 2462.478
308.12, 2500.570
308.33, 2809.404
308.54, 3166.160
308.76, 2346.563
308.97, 2491.968
309.18, 2914.260
309.40, 2688.573
309.61, 2555.865
309.82, 2409.230
310.04, 2787.695
310.25, 3035.499
310.46, 2364.585
310.68, 2458.791
310.89, 2883.130
311.11, 2648.024
311.32, 2492.378
311.53, 2443.227
311.75, 2965.049
311.96, 2986.758
312.17, 2521.459
312.39, 2494.426
312.60, 2808.994
312.81, 2999.455
313.03, 2519.002
313.24, 2446.094
313.45, 2802.440
313.67, 2910.983
313.88, 2533.747
314.09, 2477.223
314.31, 2776.636
314.52, 2895.828
314.73, 2482.548
314.95, 2422.337
315.16, 3151.414
315.37, 3003.551
315.58, 2447.323
315.80, 2315.024
316.01, 2626.315
316.22, 2854.459
316.44, 2483.776
316.65, 2655.806
316.86, 2806.127
317.08, 2901.153
317.29, 2580.441
317.50, 2375.644
317.72, 2726.666
317.93, 3070.724
318.14, 2488.692
318.35, 2681.201
318.57, 2759.024
318.78, 3044.510
318.99, 2519.411
319.21, 2335.504
319.42, 3012.562
319.63, 2728.714
319.85, 2312.976
320.06, 2535.795
320.27, 2827.426
320.48, 2486.644
320.70, 2406.363
320.91, 2451.828
321.12, 2918.765
321.34, 2830.293
321.55, 2462.068
321.76, 2464.116
321.97, 2990.854
322.19, 2764.758
322.40, 2582.898
322.61, 2566.105
322.83, 2746.326
323.04, 2801.212
323.25, 2503.027
323.46, 2499.751
323.68, 2915.488
323.89, 2604.607
324.10, 2438.721
324.31, 2535.795
324.53, 2791.791
324.74, 3029.765
324.95, 2471.489
325.16, 2643.518
325.38, 2976.927
325.59, 2945.798
325.80, 2478.861
326.01, 2453.057
326.23, 3053.521
326.44, 2866.747
326.65, 2459.201
326.86, 2668.503
327.08, 2899.105
327.29, 2875.758
327.50, 2455.515
327.71, 2634.917
327.93, 2439.131
328.14, 2696.765
328.35, 2395.304
328.56, 2529.651
328.78, 2909.344
328.99, 3246.030
329.20, 2454.695
329.41, 2562.418
329.63, 2799.983
329.84, 2733.219
330.05, 2480.090
330.26, 2446.503
330.48, 2507.123
330.69, 2677.514
330.90, 2433.396
331.11, 2339.190
331.32, 2692.260
331.54, 2968.736
331.75, 2420.289
331.96, 2512.038
332.17, 3079.326
332.39, 2583.717
332.60, 2426.433
332.81, 2367.042
333.02, 2607.064
333.23, 2575.116
333.45, 2466.574
333.66, 2581.260
333.87, 2805.308
334.08, 2728.304
334.29, 2478.452
334.51, 2526.374
334.72, 2924.909
334.93, 2822.101
335.14, 2513.267
335.35, 2451.828
335.57, 2623.038
335.78, 2811.452
335.99, 2385.064
336.20, 2287.991
336.41, 2614.846
336.63, 2996.997
336.84, 2320.349
337.05, 2625.496
337.26, 3029.765
337.47, 2622.219
337.69, 2494.426
337.90, 2390.799
338.11, 2915.488
338.32, 3155.920
338.53, 2342.876
338.74, 2442.817
338.96, 3026.488
339.17, 3232.514
339.38, 2853.640
339.59, 2536.614
339.80, 2873.300
340.01, 3043.282
340.23, 2581.260
340.44, 2356.802
340.65, 2920.813
340.86, 2862.241
341.07, 2373.186
341.28, 2550.950
341.50, 2944.160
341.71, 2696.356
341.92, 2544.806
342.13, 2337.552
342.34, 2632.049
342.55, 2602.149
342.77, 2432.168
342.98, 2383.016
343.19, 2894.189
343.40, 2893.370
343.61, 2388.341
343.82, 2620.990
344.03, 2516.544
344.25, 3015.839
344.46, 2387.932
344.67, 2568.562
344.88, 2768.854
345.09, 2863.470
345.30, 2470.670
345.51, 2564.057
345.73, 2922.861
345.94, 2863.060
346.15, 2625.496
346.36, 2629.592
346.57, 2896.647
346.78, 2676.695
346.99, 2471.489
347.21, 2661.950
347.42, 2827.426
347.63, 2808.994
347.84, 2565.695
348.05, 2528.013
348.26, 2769.263
348.47, 2576.754
348.68, 2379.740
348.89, 2538.252
349.11, 2856.916
349.32, 2959.724
349.53, 2349.020
349.74, 2666.865
349.95, 2514.906
350.16, 3003.551
350.37, 2325.264
350.58, 2503.847
350.79, 2914.669
351.01, 2953.171
351.22, 2538.662
351.43, 2465.345
351.64, 2894.599
351.85, 2890.094
352.06, 2483.367
352.27, 2480.909
352.48, 2682.429
352.69, 3048.606
352.90, 2586.994
353.12, 2618.942
353.33, 2873.300
353.54, 2736.496
353.75, 2503.027
353.96, 2452.647
354.17, 2730.352
354.38, 2899.105
354.59, 2549.312
354.80, 2505.895
355.01, 2666.865
355.22, 2787.285
355.43, 2396.123
355.64, 2605.426
355.86, 2978.156
356.07, 3035.090
356.28, 2453.057
356.49, 2330.588
356.70, 2784.418
356.91, 3229.647
357.12, 2507.533
357.33, 2528.013
357.54, 2851.592
357.75, 2829.883
357.96, 2370.729
358.17, 2503.437
358.38, 2666.455
358.59, 2906.887
358.80, 2389.160
359.02, 2573.478
359.23, 2570.201
359.44, 3006.418
359.65, 2260.138
359.86, 2538.662
360.07, 2728.304
360.28, 2532.928
360.49, 2412.507
360.70, 2543.987
360.91, 2564.466
361.12, 2880.673
361.33, 2504.666
361.54, 2504.666
361.75, 2952.761
361.96, 2706.186
362.17, 2597.644
362.38, 2483.776
362.59, 2963.820
362.80, 3069.905
363.01, 2393.666
363.22, 2501.799
363.43, 2590.271
363.64, 3001.503
363.85, 2387.112
364.06, 2496.884
364.27, 2661.540
364.48, 2867.156
364.69, 2312.976
364.90, 2506.304
365.11, 2763.119
365.33, 2907.706
365.54, 2412.507
365.75, 2674.238
365.96, 2992.902
366.17, 2761.891
366.38, 2457.153
366.59, 2584.537
366.80, 2608.293
367.01, 3046.558
367.22, 2355.164
367.43, 2474.765
367.64, 2788.514
367.85, 2897.876
368.06, 2350.249
368.27, 2444.865
368.48, 3076.868
368.69, 2562.418
368.90, 2502.618
369.11, 2419.470
369.32, 2970.374
369.53, 2830.293
369.74, 2446.913
369.94, 2490.740
370.15, 2717.245
370.36, 2976.927
370.57, 2443.636
370.78, 2550.540
370.99, 2760.252
371.20, 3043.691
371.41, 2499.341
371.62, 2613.208
371.83, 2731.581
372.04, 2719.703
372.25, 2432.577
372.46, 2560.371
372.67, 2759.843
372.88, 3131.754
373.09, 2347.791
373.30, 2514.496
373.51, 2807.356
373.72, 2908.935
373.93, 2508.762
374.14, 2398.171
374.35, 2841.352
374.56, 3146.499
374.77, 2600.101
374.98, 2285.943
375.19, 3035.499
375.40, 2953.990
375.61, 2376.053
375.82, 2617.304
376.03, 2790.562
376.23, 2897.466
376.44, 2419.470
376.65, 2518.182
376.86, 2653.348
377.07, 2992.492
377.28, 2573.887
377.49, 2423.157
377.70, 3113.322
377.91, 2804.079
378.12, 2362.946
378.33, 2404.315
378.54, 2591.500
378.75, 3124.381
378.96, 2428.072
379.17, 2422.747
379.37, 2788.105
379.58, 2684.477
379.79, 2312.566
380.00, 2426.024
380.21, 2624.267
380.42, 2929.824
380.63, 2426.843
380.84, 2409.640
381.05, 2783.599
381.26, 3039.595
381.47, 2515.315
381.68, 2600.920
381.89, 2963.001
382.09, 2827.016
382.30, 2693.898
382.51, 2596.415
382.72, 2998.636
382.93, 2702.090
383.14, 2380.149
383.35, 2518.182
383.56, 2808.994
383.77, 2817.595
383.98, 2444.046
384.18, 2557.913
384.39, 2959.315
384.60, 2920.813
384.81, 2371.548
385.02, 2412.507
385.23, 2694.717
385.44, 2754.928
385.65, 2362.127
385.86, 2537.024
386.06, 2684.068
386.27, 3125.610
386.48, 2524.326
386.69, 2608.293
386.90, 2650.891
387.11, 2728.714
387.32, 2465.345
387.53, 2452.238
387.73, 2710.691
387.94, 3078.916
388.15, 2573.068
388.36, 2501.799
388.57, 3107.178
388.78, 2976.518
388.99, 2573.068
389.20, 2381.378
389.40, 3677.333
389.61, 2713.559
389.82, 2485.005
390.03, 2338.371
390.24, 2944.569
390.45, 2818.824
390.66, 2528.422
390.86, 2422.337
391.07, 2613.208
391.28, 2581.260
391.49, 2308.880
391.70, 2415.784
391.91, 2578.393
392.12, 3229.647
392.32, 2380.149
392.53, 2440.360
392.74, 2835.208
392.95, 2918.765
393.16, 2408.821
393.37, 2471.079
393.57, 2872.071
393.78, 2547.264
393.99, 2563.647
394.20, 2491.149
394.41, 2904.020
394.62, 2781.142
394.82, 2456.743
395.03, 2423.157
395.24, 2815.957
395.45, 2796.297
395.66, 2429.710
395.87, 2503.027
396.07, 3068.676
396.28, 2895.418
396.49, 2485.824
396.70, 2403.906
396.91, 2676.695
397.11, 2834.389
397.32, 2312.566
397.53, 2327.721
397.74, 2669.732
397.95, 2819.234
398.16, 2462.887
398.36, 2691.441
398.57, 2773.769
398.78, 2732.400
398.99, 2602.968
399.20, 2335.913
399.40, 2539.481
399.61, 3006.828
399.82, 2434.625
400.03, 2414.965
400.24, 3015.429
400.44, 2589.042
400.65, 2503.437
400.86, 2500.160
401.07, 2636.555
401.27, 2907.706
401.48, 2496.064
401.69, 2392.028
401.90, 2972.831
402.11, 2731.990
402.31, 2443.227
402.52, 2490.740
402.73, 2557.913
402.94, 2591.909
403.15, 2540.710
403.35, 2319.939
403.56, 3103.901
403.77, 2698.813
403.98, 2531.289
404.18, 2385.474
404.39, 2819.234
404.60, 2746.736
404.81, 2541.529
405.01, 2319.939
405.22, 2593.138
405.43, 2955.219
405.64, 2483.776
405.85, 2521.459
406.05, 3154.691
406.26, 2971.603
406.47, 2659.492
406.68, 2505.485
406.88, 3143.222
407.09, 2751.241
407.30, 2355.574
407.51, 2324.445
407.71, 2956.448
407.92, 2615.666
408.13, 2271.197
408.34, 2429.301
408.54, 2495.655
408.75, 2518.182
408.96, 2488.692
409.16, 2566.924
409.37, 2750.422
409.58, 3040.005
409.79, 2539.072
409.99, 2477.633
410.20, 3036.728
410.41, 2682.429
410.62, 2474.765
410.82, 2432.577
411.03, 3019.935
411.24, 2645.566
411.45, 2463.297
411.65, 2519.821
411.86, 2787.285
412.07, 2629.592
412.27, 2587.813
412.48, 2497.293
412.69, 2795.477
412.90, 3017.887
413.10, 2523.098
413.31, 2482.548
413.52, 2780.322
413.72, 2481.319
413.93, 2294.954
414.14, 2329.769
414.35, 2864.699
414.55, 2858.555
414.76, 2476.813
414.97, 2404.315
415.17, 2701.271
415.38, 2984.300
415.59, 2455.515
415.79, 2372.777
416.00, 3091.204
416.21, 3073.182
416.41, 2353.935
416.62, 2347.382
416.83, 3068.676
417.04, 3064.580
417.24, 2444.046
417.45, 2557.913
417.66, 2905.248
417.86, 2660.721
418.07, 2405.134
418.28, 2477.223
418.48, 3149.366
418.69, 2734.448
418.90, 2580.031
419.10, 2457.562
419.31, 2734.448
419.52, 2559.142
419.72, 2493.607
419.93, 2383.426
420.14, 2962.182
420.34, 3012.972
420.55, 2468.622
420.76, 2616.894
420.96, 2602.968
421.17, 2789.333
421.38, 2500.160
421.58, 2514.086
421.79, 2978.566
422.00, 2795.887
422.20, 2460.430
422.41, 2354.754
422.62, 2571.839
422.82, 3000.274
423.03, 2616.485
423.24, 2577.983
423.44, 2512.448
423.65, 2791.791
423.85, 2359.670
424.06, 2588.223
424.27, 2987.167
424.47, 2875.758
424.68, 2949.075
424.89, 2696.765
425.09, 3023.211
425.30, 2878.625
425.51, 2463.706
425.71, 2539.072
425.92, 2844.629
426.12, 3198.108
426.33, 2394.895
426.54, 2360.079
426.74, 2917.127
426.95, 2734.038
427.16, 2357.622
427.36, 2343.695
427.57, 2846.267
427.77, 2970.783
427.98, 2625.086
428.19, 2491.559
428.39, 2684.887
428.60, 2917.127
428.81, 2423.566
429.01, 2449.780
429.22, 2902.381
429.42, 2724.208
429.63, 2687.754
429.84, 2631.640
430.04, 2553.407
430.25, 3081.783
430.45, 2446.503
430.66, 2357.622
430.87, 2576.754
431.07, 2716.426
431.28, 2478.452
431.48, 2330.998
431.69, 2737.725
431.90, 2707.824
432.10, 2594.776
432.31, 2388.341
432.51, 2704.548
432.72, 2952.352
432.92, 2382.197
433.13, 2503.847
433.34, 2915.898
433.54, 2878.215
433.75, 2485.824
433.95, 2615.666
434.16, 2996.997
434.37, 2642.289
434.57, 2559.551
434.78, 2566.514
434.98, 2623.448
435.19, 2781.142
435.39, 2453.876
435.60, 2514.496
435.81, 3017.477
436.01, 2552.998
436.22, 2482.957
436.42, 2525.555
436.63, 2704.548
436.83, 2958.496
437.04, 2548.083
437.24, 2508.762
437.45, 2721.341
437.66, 2806.127
437.86, 2450.190
438.07, 2374.415
438.27, 2753.289
438.48, 2876.167
438.68, 2580.850
438.89, 2482.548
439.09, 2930.234
439.30, 2688.983
439.50, 2516.544
439.71, 2457.153
439.92, 2811.861
440.12, 2675.466
440.33, 2382.197
440.53, 2572.249
440.74, 2580.031
440.94, 2960.134
441.15, 2673.828
441.35, 2403.087
441.56, 2871.252
441.76, 2805.717
441.97, 2399.810
442.17, 2466.574
442.38, 2832.341
442.58, 2909.754
442.79, 2438.721
443.00, 2464.935
443.20, 2760.662
443.41, 2815.957
443.61, 2409.640
443.82, 2565.286
444.02, 2705.367
444.23, 2458.791
444.43, 2560.371
444.64, 2641.470
444.84, 2955.628
445.05, 2609.522
445.25, 2542.758
445.46, 2447.323
445.66, 2634.507
445.87, 2686.525
446.07, 2426.843
446.28, 2510.400
446.48, 2842.171
446.69, 2607.064
446.89, 2521.050
447.10, 2519.411
447.30, 2989.215
447.51, 2838.485
447.71, 2634.507
447.92, 2448.142
448.12, 2732.400
448.33, 2814.319
448.53, 2422.337
448.73, 2603.787
448.94, 3224.322
449.14, 2691.031
449.35, 2549.312
449.55, 2457.562
449.76, 2971.193
449.96, 2927.776
450.17, 2514.086
450.37, 2481.729
450.58, 3176.400
450.78, 2652.939
450.99, 2367.042
451.19, 2670.961
451.40, 2705.367
451.60, 2678.743
451.81, 2381.788
452.01, 2443.636
452.21, 2933.101
452.42, 2772.540
452.62, 2394.485
452.83, 2486.234
453.03, 2960.544
453.24, 2897.057
453.44, 2645.156
453.65, 2442.817
453.85, 3274.292
454.06, 2915.898
454.26, 2489.920
454.46, 2632.869
454.67, 2989.215
454.87, 2795.477
455.08, 2640.241
455.28, 2593.957
455.49, 2796.706
455.69, 3198.927
455.89, 2585.765
456.10, 2365.813
456.30, 3246.440
456.51, 2842.990
456.71, 2444.865
456.92, 2511.219
457.12, 2947.437
457.32, 2694.717
457.53, 2704.548
457.73, 2528.422
457.94, 3032.632
458.14, 2642.289
458.35, 2372.777
458.55, 2456.334
458.75, 3039.595
458.96, 3021.164
459.16, 2247.031
459.37, 2531.699
459.57, 2553.817
459.77, 2933.920
459.98, 2488.282
460.18, 2538.662
460.39, 2971.193
460.59, 2639.832
460.79, 2310.518
461.00, 2466.164
461.20, 2835.208
461.41, 2995.769
461.61, 2439.540
461.81, 2582.898
462.02, 2815.547
462.22, 3022.802
462.43, 2478.861
462.63, 2394.485
462.83, 3067.448
463.04, 2915.079
463.24, 2466.574
463.45, 2422.747
463.65, 2673.828
463.85, 2928.186
464.06, 2330.179
464.26, 2752.470
464.46, 2719.293
464.67, 2980.204
464.87, 2497.703
465.08, 2477.633
465.28, 2833.160
465.48, 2743.459
465.69, 2419.880
465.89, 2501.389
466.09, 3171.075
466.30, 3028.127
466.50, 2431.348
466.71, 2453.467
466.91, 3035.909
467.11, 2998.636
467.32, 2571.020
467.52, 2497.703
467.72, 2659.492
467.93, 2648.433
468.13, 2577.164
468.33, 2340.828
468.54, 2797.525
468.74, 3250.946
468.94, 2623.038
469.15, 2546.854
469.35, 2634.507
469.55, 2735.267
469.76, 2499.341
469.96, 2519.002
470.17, 2964.640
470.37, 3093.662
470.57, 2499.341
470.78, 2476.404
470.98, 2964.640
471.18, 2987.986
471.39, 2508.762
471.59, 2729.533
471.79, 2693.898
471.99, 2546.035
472.20, 2487.463
472.40, 2467.393
472.60, 2606.245
472.81, 2801.621
473.01, 2555.455
473.21, 2506.304
473.42, 3197.698
473.62, 3061.304
473.82, 2538.252
474.03, 2859.374
474.23, 2667.275
474.43, 2992.492
474.64, 2329.360
474.84, 2578.393
475.04, 2807.765
475.25, 2867.975
475.45, 2358.031
475.65, 2503.027
475.85, 2550.131
476.06, 2929.005
476.26, 2618.942
476.46, 2484.596
476.67, 2783.599
476.87, 2888.455
477.07, 2396.533
477.28, 2492.788
477.48, 2929.824
477.68, 3049.425
477.88, 2256.042
478.09, 2512.858
478.29, 2757.385
478.49, 3048.197
478.70, 2419.880
478.90, 2570.201
479.10, 2677.105
479.30, 3026.488
479.51, 2438.312
479.71, 2358.441
479.91, 2897.466
480.11, 2952.352
480.32, 2600.101
480.52, 2580.441
480.72, 2760.662
480.93, 2652.529
481.13, 2257.681
481.33, 2416.603
481.53, 3040.005
481.74, 2840.942
481.94, 2365.814
482.14, 2515.725
482.34, 2756.976
482.55, 2838.485
482.75, 2606.245
482.95, 2443.636
483.15, 2848.315
483.36, 2505.895
483.56, 2673.418
483.76, 2405.544
483.96, 2804.488
484.17, 2919.584
484.37, 2476.813
484.57, 2528.422
484.77, 2779.503
484.98, 3101.444
485.18, 2492.788
485.38, 2546.035
485.58, 2757.795
485.79, 2997.407
485.99, 2288.400
486.19, 2573.887
486.39, 3096.938
486.59, 2547.673
486.80, 2578.393
487.00, 2488.692
487.20, 2927.367
487.40, 2802.850
487.61, 2518.182
487.81, 2394.485
488.01, 3018.706
488.21, 2813.499
488.41, 2577.573
488.62, 2565.286
488.82, 2680.382
489.02, 2711.101
489.22, 2486.234
489.43, 2504.256
489.63, 3026.079
489.83, 2634.917
490.03, 2431.348
490.23, 2360.489
490.44, 2570.610
490.64, 2886.407
490.84, 2520.230
491.04, 2557.913
491.24, 2776.636
491.45, 3096.938
491.65, 2697.175
491.85, 2507.533
492.05, 3374.643
492.25, 2915.488
492.45, 2612.389
492.66, 2439.950
492.86, 2697.175
493.06, 2910.573
493.26, 2688.164
493.46, 2536.204
493.67, 3340.647
493.87, 2577.164
494.07, 2666.046
494.27, 2440.769
494.47, 2661.540
494.67, 2901.972
494.88, 2505.485
495.08, 2488.692
495.28, 2773.769
495.48, 2789.333
495.68, 2434.216
495.89, 2451.828
496.09, 2543.168
496.29, 2818.415
496.49, 2614.027
496.69, 2507.533
496.89, 2507.123
497.09, 2844.629
497.30, 2494.016
497.50, 2503.847
497.70, 2872.481
497.90, 3176.400
498.10, 2580.850
498.30, 2912.212
498.51, 2834.389
498.71, 2799.573
498.91, 2294.954
499.11, 2602.149
499.31, 2949.894
499.51, 2961.363
499.71, 2426.433
499.92, 2522.688
500.12, 2873.300
500.32, 2780.732
500.52, 2673.418
500.72, 2319.939
500.92, 3064.580
501.12, 2926.138
501.32, 2224.504
501.53, 2435.444
501.73, 2917.127
501.93, 2871.662
502.13, 2333.046
502.33, 2255.633
502.53, 2748.374
502.73, 2877.806
502.93, 2286.352
503.14, 2533.747
503.34, 2703.319
503.54, 2800.802
503.74, 2490.740
503.94, 2420.289
504.14, 2907.706
504.34, 2851.592
504.54, 2456.743
504.74, 2468.212
504.95, 2882.721
505.15, 3064.580
505.35, 2391.208
505.55, 2425.614
505.75, 2785.647
505.95, 2821.691
506.15, 2546.035
506.35, 2480.909
506.55, 2770.902
506.75, 2859.374
506.95, 2496.474
507.16, 2621.810
507.36, 2921.632
507.56, 3012.152
507.76, 2454.286
507.96, 2600.101
508.16, 2608.293
508.36, 2826.197
508.56, 2502.618
508.76, 2501.799
508.96, 2838.485
509.16, 3241.935
509.36, 2446.913
509.57, 2644.337
509.77, 2748.374
509.97, 2749.603
510.17, 2528.832
510.37, 2494.836
510.57, 2590.680
510.77, 2593.138
510.97, 2534.157
511.17, 2412.098
511.37, 2979.385
511.57, 2991.263
511.77, 2502.618
511.97, 2432.168
512.17, 3019.116
512.37, 3017.477
512.57, 2445.684
512.78, 2541.939
512.98, 2703.728
513.18, 2487.463
513.38, 2432.577
513.58, 2531.289
513.78, 2968.326
513.98, 2845.038
514.18, 2663.179
514.38, 2336.732
514.58, 2310.928
514.78, 2665.636
514.98, 2560.371
515.18, 2552.588
515.38, 2734.038
515.58, 2671.780
515.78, 2396.943
515.98, 2563.238
516.18, 2888.865
516.38, 3032.632
516.58, 2499.751
516.78, 2327.312
516.98, 2542.348
517.18, 2794.658
517.38, 2478.042
517.58, 2499.341
517.78, 2637.784
517.98, 3052.293
518.18, 2489.920
518.38, 2454.695
518.58, 3145.270
518.78, 2707.415
518.98, 2611.979
519.18, 2474.356
519.38, 2858.145
519.58, 2781.961
519.78, 2474.765
519.98, 2571.430
520.18, 2827.835
520.38, 2771.721
520.58, 2580.031
520.78, 2491.968
520.98, 2773.769
521.18, 2954.400
521.38, 2542.348
521.58, 2600.511
521.78, 2966.278
521.98, 2826.606
522.18, 2459.201
522.38, 2634.917
522.58, 2441.179
522.78, 2833.160
522.98, 2653.348
523.18, 2455.515
523.38, 2740.182
523.58, 2655.396
523.78, 2340.828
523.98, 2485.824
524.18, 2784.418
524.38, 2744.688
524.58, 2436.673
524.78, 2505.485
524.98, 2840.942
525.18, 2685.297
525.38, 2587.813
525.58, 2627.134
525.78, 2917.946
525.98, 2838.894
526.18, 2493.197
526.38, 2418.242
526.58, 2760.662
526.78, 2659.083
526.98, 2712.739
527.17, 2283.485
527.37, 2701.680
527.57, 2653.348
527.77, 2394.895
527.97, 2473.946
528.17, 2512.858
528.37, 2833.979
528.57, 2522.278
528.77, 2446.503
528.97, 3087.108
529.17, 2889.684
529.37, 2564.057
529.57, 2480.909
529.77, 2766.806
529.97, 3001.503
530.17, 2689.802
530.36, 2546.035
530.56, 2924.499
530.76, 2589.452
530.96, 2641.060
531.16, 2450.599
531.36, 2953.990
531.56, 3004.370
531.76, 2410.869
531.96, 2408.821
532.16, 2781.551
532.36, 2736.086
532.56, 2408.002
532.76, 2537.843
532.95, 2727.485
533.15, 2817.186
533.35, 2608.293
533.55, 2460.839
533.75, 3046.149
533.95, 2794.249
534.15, 2451.419
534.35, 2602.559
534.55, 2948.256
534.75, 2754.518
534.94, 2354.345
535.14, 2498.112
535.34, 2756.156
535.54, 2744.278
535.74, 2667.274
535.94, 2425.205
536.14, 2768.854
536.34, 3205.481
536.54, 2669.322
536.73, 2497.703
536.93, 2787.695
537.13, 3162.883
537.33, 2713.968
537.53, 2469.031
537.73, 2693.079
537.93, 2706.596
538.13, 2741.001
538.32, 2653.758
538.52, 2565.695
538.72, 2661.950
538.92, 2685.706
539.12, 2438.721
539.32, 3019.525
539.52, 2936.378
539.72, 2571.430
539.91, 2376.873
540.11, 2673.828
540.31, 2742.640
540.51, 2406.773
540.71, 2626.725
540.91, 3181.315
541.11, 2618.123
541.30, 2362.127
541.50, 2338.371
541.70, 2584.537
541.90, 2747.964
542.10, 2296.592
542.30, 2482.138
542.49, 2872.891
542.69, 2727.485
542.89, 2303.555
543.09, 2475.994
543.29, 3033.042
543.49, 3065.809
543.68, 2640.241
543.88, 2534.157
544.08, 2937.197
544.28, 2772.130
544.48, 2670.142
544.68, 2409.640
544.87, 2984.300
545.07, 2865.518
545.27, 2456.743
545.47, 2449.371
545.67, 2744.278
545.87, 2795.887
546.06, 2378.101
546.26, 2416.194
546.46, 2725.027
546.66, 2736.086
546.86, 2912.621
547.05, 2403.906
547.25, 2969.145
547.45, 3271.425
547.65, 2452.238
547.85, 2306.422
548.04, 3044.101
548.24, 2978.975
548.44, 2596.415
548.64, 2583.308
548.84, 3128.477
549.03, 2599.282
549.23, 2429.710
549.43, 2545.216
549.63, 2716.016
549.83, 2873.710
550.02, 2487.463
550.22, 2487.053
550.42, 2797.525
550.62, 2936.787
550.82, 2288.400
551.01, 2508.762
551.21, 2751.241
551.41, 3242.344
551.61, 2387.932
551.80, 2547.673
552.00, 2741.411
552.20, 2881.082
552.40, 2360.489
552.60, 2552.998
552.79, 2930.234
552.99, 2837.666
553.19, 2596.415
553.39, 2362.127
553.58, 2839.713
553.78, 2526.374
553.98, 2689.393
554.18, 2379.740
554.37, 2540.300
554.57, 2833.979
554.77, 2604.607
554.97, 2584.537
555.16, 3027.717
555.36, 3311.156
555.56, 2446.094
555.76, 2472.717
555.95, 3308.698
556.15, 2799.164
556.35, 2588.223
556.55, 2584.946
556.74, 2516.954
556.94, 2727.485
557.14, 2353.935
557.34, 2514.086
557.53, 2804.488
557.73, 2824.968
557.93, 2476.813
558.13, 2421.518
558.32, 2749.603
558.52, 2794.658
558.72, 2345.743
558.92, 2515.725
559.11, 2873.710
559.31, 2865.108
559.51, 2587.404
559.70, 2500.570
559.90, 2779.094
560.10, 2626.725
560.30, 2385.884
560.49, 2597.234
560.69, 2710.691
560.89, 3043.282
561.08, 2351.478
561.28, 2434.625
561.48, 2747.964
561.68, 2890.913
561.87, 2489.511
562.07, 2476.404
562.27, 2598.872
562.46, 2841.352
562.66, 2460.430
562.86, 2435.035
563.05, 2717.245
563.25, 2573.478
563.45, 2308.470
563.65, 2760.662
563.84, 2980.614
564.04, 2736.496
564.24, 2494.836
564.43, 2435.854
564.63, 2935.558
564.83, 2824.558
565.02, 2433.806
565.22, 2481.319
565.42, 2627.954
565.61, 2831.931
565.81, 2455.105
566.01, 2644.337
566.20, 2791.381
566.40, 2540.300
566.60, 2472.717
566.79, 2386.703
566.99, 2987.577
567.19, 2756.156
567.38, 2593.548
567.58, 2440.360
567.78, 2742.230
567.97, 2605.426
568.17, 2250.718
568.37, 2482.957
568.56, 3051.883
568.76, 2701.271
568.96, 2518.182
569.15, 2571.839
569.35, 4226.188
569.55, 3084.241
569.74, 2444.046
569.94, 2618.533
570.14, 2883.540
570.33, 2803.669
570.53, 2324.854
570.73, 2401.448
570.92, 2569.382
571.12, 2802.850
571.31, 2222.046
571.51, 2466.983
571.71, 2775.407
571.90, 3036.318
572.10, 2357.212
572.30, 2398.171
572.49, 3046.558
572.69, 2958.086
572.88, 2503.437
573.08, 2292.087
573.28, 3179.267
573.47, 2829.883
573.67, 2320.758
573.87, 2434.216
574.06, 2734.038
574.26, 2906.068
574.45, 2379.740
574.65, 2348.611
574.85, 2982.662
575.04, 2752.470
575.24, 2620.990
575.44, 2347.382
575.63, 2844.219
575.83, 2502.208
576.02, 2436.673
576.22, 2432.168
576.42, 2940.474
576.61, 2764.348
576.81, 2364.175
577.00, 2608.293
577.20, 2867.566
577.40, 2848.725
577.59, 2281.028
577.79, 2525.555
577.98, 2798.754
578.18, 2677.514
578.37, 2532.928
578.57, 2309.290
578.77, 2553.817
578.96, 2531.699
579.16, 2285.533
579.35, 2288.810
579.55, 2596.824
579.75, 2526.374
579.94, 2407.592
580.14, 2343.286
580.33, 3165.341
580.53, 2733.629
580.72, 2396.123
580.92, 2539.481
581.12, 2750.012
581.31, 2744.278
581.51, 2541.529
581.70, 2471.489
581.90, 3386.112
582.09, 2559.551
582.29, 2288.400
582.48, 2404.725
582.68, 2836.027
582.88, 3012.152
583.07, 2358.031
583.27, 2256.862
583.46, 2860.193
583.66, 3080.555
583.85, 2540.300
584.05, 2511.219
584.24, 3222.684
584.44, 2966.688
584.63, 2386.703
584.83, 2351.068
585.03, 2934.330
585.22, 2654.987
585.42, 2241.297
585.61, 2410.869
585.81, 2697.584
586.00, 2780.322
586.20, 2378.511
586.39, 2413.326
586.59, 2613.208
586.78, 2598.463
586.98, 2484.596
587.17, 2523.507
587.37, 2912.212
587.56, 3089.975
587.76, 2455.515
587.95, 2463.297
588.15, 2697.175
588.34, 2934.739
588.54, 2388.341
588.74, 2496.884
588.93, 2503.847
589.13, 2912.212
589.32, 2367.452
589.52, 2231.876
589.71, 3014.610
589.91, 2851.592
590.10, 2289.219
590.30, 2453.876
590.49, 2765.167
590.69, 2925.319
590.88, 2340.009
591.08, 2325.264
591.27, 2803.260
591.47, 2514.496
591.66, 2394.485
591.85, 2349.430
592.05, 2881.492
592.24, 3055.569
592.44, 2317.072
592.63, 2251.127
592.83, 2838.894
593.02, 2768.035
593.22, 2297.411
593.41, 2186.821
593.61, 2699.632
593.80, 3366.861
594.00, 2299.459
594.19, 2382.197
594.39, 2781.551
594.58, 2575.526
594.78, 2357.212
594.97, 2493.607
595.17, 2748.784
595.36, 2867.566
595.56, 2374.415
595.75, 2397.352
595.94, 2884.359
596.14, 2991.263
596.33, 2425.205
596.53, 2242.526
596.72, 2759.024
596.92, 2804.079
597.11, 2379.330
597.31, 2566.924
597.50, 2904.839
597.69, 3076.459
597.89, 2468.212
598.08, 2328.131
598.28, 2943.341
598.47, 2818.824
598.67, 2413.736
598.86, 2464.116
599.06, 2974.879
599.25, 2724.208
599.44, 2487.872
599.64, 2472.717
599.83, 2746.326
600.03, 2705.776
600.22, 2281.028
600.42, 2518.592
600.61, 2692.260
600.80, 2623.448
601.00, 2506.714
601.19, 2387.522
601.39, 2971.193
601.58, 2700.861
601.78, 2446.913
601.97, 2431.348
602.16, 2863.060
602.36, 2679.153
602.55, 2454.286
602.75, 2318.710
602.94, 2955.628
603.13, 3017.068
603.33, 2294.954
603.52, 2356.393
603.72, 2940.064
603.91, 2634.097
604.10, 2383.836
604.30, 2421.928
604.49, 2762.710
604.69, 2818.824
604.88, 2215.902
605.07, 2457.972
605.27, 2752.470
605.46, 2542.758
605.66, 2503.027
605.85, 2393.256
606.04, 2865.518
606.24, 2923.680
606.43, 2177.810
606.62, 2399.400
606.82, 2663.998
607.01, 2846.267
607.21, 2316.253
607.40, 2517.773
607.59, 2802.440
607.79, 2592.728
607.98, 2503.847
608.17, 2246.622
608.37, 2858.145
608.56, 3266.510
608.76, 2181.087
608.95, 2306.832
609.14, 3092.433
609.34, 2737.315
609.53, 2378.920
609.72, 2298.231
609.92, 2677.105
610.11, 2793.839
610.30, 2340.009
610.50, 2368.681
610.69, 2455.924
610.88, 2867.156
611.08, 2377.282
611.27, 2268.740
611.46, 2939.654
611.66, 2654.987
611.85, 2199.109
612.04, 2424.795
612.24, 2955.219
612.43, 2699.223
612.62, 2263.415
612.82, 2419.880
613.01, 2671.370
613.20, 2849.953
613.40, 2372.367
613.59, 2299.869
613.78, 2822.920
613.98, 2437.083
614.17, 2347.791
614.36, 2367.861
614.56, 3641.698
614.75, 2654.577
614.94, 2350.659
615.14, 2351.887
615.33, 3025.669
615.52, 3010.924
615.72, 2272.836
615.91, 2454.695
616.10, 2813.909
616.30, 2834.798
616.49, 2448.961
616.68, 2369.909
616.88, 3158.377
617.07, 3104.311
617.26, 2261.777
617.45, 2441.588
617.65, 3215.311
617.84, 2487.463
618.03, 2257.681
618.23, 2411.688
618.42, 2848.725
618.61, 2632.049
618.80, 2350.659
619.00, 2314.614
619.19, 2986.348
619.38, 2810.632
619.58, 2346.972
619.77, 2385.884
619.96, 3048.197
620.15, 2684.887
620.35, 2555.865
620.54, 2376.053
620.73, 2714.787
620.93, 2905.658
621.12, 2281.847
621.31, 2446.503
621.50, 2610.751
621.70, 3289.447
621.89, 2260.958
622.08, 2170.028
622.27, 2847.086
622.47, 2993.721
622.66, 2276.522
622.85, 2427.662
623.04, 2809.813
623.24, 2673.418
623.43, 2408.821
623.62, 2392.437
623.81, 2810.632
624.01, 2917.536
624.20, 2283.485
624.39, 2513.677
624.58, 2620.990
624.78, 2829.064
624.97, 2312.157
625.16, 2368.271
625.35, 2816.367
625.55, 2848.725
625.74, 2409.230
625.93, 2419.470
626.12, 2696.356
626.32, 2597.644
626.51, 2298.231
626.70, 2350.249
626.89, 2725.846
627.09, 2735.677
627.28, 2338.780
627.47, 2421.518
627.66, 3018.296
627.85, 2871.252
628.05, 2297.821
628.24, 2346.563
628.43, 2949.485
628.62, 2974.470
628.82, 2341.238
629.01, 2539.481
629.20, 2852.001
629.39, 2874.939
629.58, 2216.721
629.78, 2397.352
629.97, 2688.573
630.16, 2698.813
630.35, 2339.190
630.54, 2395.714
630.74, 2566.105
630.93, 2614.437
631.12, 2328.131
631.31, 2261.777
631.50, 2865.108
631.70, 2992.082
631.89, 2240.887
632.08, 2463.706
632.27, 2497.293
632.46, 2958.905
632.65, 2461.658
632.85, 2274.064
633.04, 2781.142
633.23, 2956.038
633.42, 2367.452
633.61, 2351.478
633.81, 2849.134
634.00, 2741.001
634.19, 2426.024
634.38, 2411.278
634.57, 2705.367
634.76, 2580.031
634.96, 2279.389
635.15, 2350.249
635.34, 2967.916
635.53, 3019.935
635.72, 2431.348
635.91, 2190.098
636.11, 2880.673
636.30, 2896.237
636.49, 2422.337
636.68, 2321.168
636.87, 2546.854
637.06, 3254.632
637.26, 2352.297
637.45, 2329.769
637.64, 2695.127
637.83, 2787.695
638.02, 2294.135
638.21, 2454.286
638.40, 3117.008
638.60, 3147.728
638.79, 2477.633
638.98, 2246.622
639.17, 2877.806
639.36, 2562.418
639.55, 2425.205
639.74, 2375.644
639.93, 2724.618
640.13, 2862.651
640.32, 2322.806
640.51, 2342.467
640.70, 2970.783
640.89, 2839.304
641.08, 2408.821
641.27, 2324.035
641.46, 2885.998
641.66, 2953.581
641.85, 2323.625
642.04, 2328.540
642.23, 3022.392
642.42, 2697.584
642.61, 2379.740
642.80, 2269.149
642.99, 2701.680
643.18, 3003.961
643.38, 2405.544
643.57, 2398.171
643.76, 2603.787
643.95, 3027.717
644.14, 2430.939
644.33, 2446.094
644.52, 3020.754
644.71, 2688.164
644.90, 2358.031
645.09, 2287.581
645.29, 2870.433
645.48, 2787.695
645.67, 2517.773
645.86, 2498.112
646.05, 2896.237
646.24, 3082.193
646.43, 2230.648
646.62, 2395.714
646.81, 2655.806
647.00, 2609.931
647.19, 2263.825
647.38, 2393.666
647.57, 2813.909
647.77, 2863.060
647.96, 2374.825
648.15, 2281.437
648.34, 2942.112
648.53, 3065.809
648.72, 2340.009
648.91, 2575.935
649.10, 2952.352
649.29, 2418.651
649.48, 2293.725
649.67, 2376.873
649.86, 3112.503
650.05, 2482.548
650.24, 2384.655
650.43, 2572.249
650.62, 2820.872
650.81, 3097.348
651.01, 2300.688
651.20, 2373.596
651.39, 2908.116
651.58, 3033.451
651.77, 2283.076
651.96, 2432.987
652.15, 2876.167
652.34, 2705.367
652.53, 2455.924
652.72, 2431.758
652.91, 2962.592
653.10, 2904.839
653.29, 2355.164
653.48, 2316.662
653.67, 2912.212
653.86, 2738.134
654.05, 2318.710
654.24, 2347.382
654.43, 2745.507
654.62, 2701.271
654.81, 2321.987
655.00, 2370.319
655.19, 2749.603
655.38, 2968.326
655.57, 2299.459
655.76, 2476.813
655.95, 2799.983
656.14, 2562.828
656.33, 2372.367
656.52, 2387.522
656.71, 2637.784
656.90, 2767.215
657.09, 2328.131
657.28, 2308.470
657.47, 2857.736
657.66, 2890.503
657.85, 2291.267
658.04, 2408.411
658.23, 2538.252
658.42, 2907.296
658.61, 2356.802
658.80, 2268.330
658.99, 2803.669
659.18, 3245.211
659.37, 2261.777
659.56, 2395.304
659.75, 2763.939
659.94, 2705.367
660.13, 2212.216
660.32, 2457.153
660.51, 2821.282
660.70, 2739.363
660.89, 2496.064
661.08, 2268.330
661.27, 2893.370
661.46, 2763.939
661.65, 2353.116
661.84, 2441.179
662.03, 2788.924
662.22, 2945.389
662.41, 2290.448
662.60, 2253.175
662.78, 2731.990
662.97, 2939.654
663.16, 2316.662
663.35, 2358.850
663.54, 2784.009
663.73, 3004.370
663.92, 2384.655
664.11, 2336.323
664.30, 2704.548
664.49, 2956.857
664.68, 2364.175
664.87, 2362.537
665.06, 2786.057
665.25, 2744.278
665.44, 2322.806
665.63, 2317.072
665.82, 2784.828
666.01, 3193.193
666.19, 2301.507
666.38, 2426.843
666.57, 3144.042
666.76, 2716.016
666.95, 2463.297
667.14, 2274.064
667.33, 2685.297
667.52, 3079.326
667.71, 2406.363
667.90, 2589.452
668.09, 3049.016
668.28, 2659.902
668.46, 2309.699
668.65, 2470.260
668.84, 3160.425
669.03, 2571.020
669.22, 2246.622
669.41, 2439.950
669.60, 3183.363
669.79, 2575.525
669.98, 2451.009
670.17, 2286.352
670.35, 2829.883
670.54, 2741.001
670.73, 2330.179
670.92, 2413.326
671.11, 2862.651
671.30, 2445.684
671.49, 2367.452
671.68, 2295.363
671.87, 2933.101
672.05, 2955.628
672.24, 2278.160
672.43, 2446.094
672.62, 2647.204
672.81, 2945.389
673.00, 2386.293
673.19, 2257.271
673.38, 2717.245
673.57, 2713.149
673.75, 2496.064
673.94, 2363.356
674.13, 2803.669
674.32, 2689.802
674.51, 2373.596
674.70, 2373.596
674.89, 2441.179
675.07, 2847.496
675.26, 2599.282
675.45, 2431.348
675.64, 2949.075
675.83, 2915.079
676.02, 2485.824
676.21, 2639.832
676.39, 2841.761
676.58, 2535.385
676.77, 2137.260
676.96, 2326.902
677.15, 2738.134
677.34, 3094.481
677.52, 2378.511
677.71, 2353.935
677.90, 2767.625
678.09, 2879.854
678.28, 2327.721
678.47, 2488.282
678.65, 2821.691
678.84, 3068.676
679.03, 2315.433
679.22, 2322.806
679.41, 2648.024
679.60, 2639.013
679.78, 2467.393
679.97, 2387.932
680.16, 2994.130
680.35, 2895.418
680.54, 2599.282
680.73, 2286.352
680.91, 2755.747
681.10, 2935.558
681.29, 2434.216
681.48, 2423.976
681.67, 2945.389
681.85, 2686.935
682.04, 2374.005
682.23, 2357.212
682.42, 2652.939
682.61, 2509.990
682.79, 2387.522
682.98, 2485.824
683.17, 2747.145
683.36, 2655.396
683.55, 2457.972
683.73, 2507.533
683.92, 2661.540
684.11, 2823.330
684.30, 2532.518
684.49, 2479.681
684.67, 2695.127
684.86, 2629.592
685.05, 2353.116
685.24, 2413.326
685.42, 3077.278
685.61, 2736.905
685.80, 2459.610
685.99, 2539.481
686.18, 2777.046
686.36, 2682.429
686.55, 2640.241
686.74, 2448.961
686.93, 2797.116
687.11, 2935.968
687.30, 2237.611
687.49, 2284.714
687.68, 2867.566
687.86, 2790.562
688.05, 2408.821
688.24, 2339.190
688.43, 3119.056
688.61, 2829.883
688.80, 2380.559
688.99, 2350.659
689.18, 3119.466
689.36, 2911.802
689.55, 2365.813
689.74, 2218.769
689.93, 2830.293
690.11, 2753.289
690.30, 2348.201
690.49, 2374.825
690.68, 3113.732
690.86, 2673.009
691.05, 2322.806
691.24, 2347.791
691.43, 2809.813
691.61, 2999.865
691.80, 2337.142
691.99, 2274.474
692.17, 2887.226
692.36, 2762.710
692.55, 2459.610
692.74, 2258.090
692.92, 2618.533
693.11, 2696.765
693.30, 2508.352
693.49, 2309.290
693.67, 2668.503
693.86, 2791.791
694.05, 2426.024
694.23, 2432.168
694.42, 3130.115
694.61, 2632.459
694.79, 2367.861
694.98, 2340.419
695.17, 2960.953
695.36, 2416.603
695.54, 2448.142
695.73, 2260.138
695.92, 2850.363
696.10, 2938.016
696.29, 2228.600
696.48, 2471.489
696.66, 3288.219
696.85, 2554.636
697.04, 2281.437
697.22, 2357.212
697.41, 2995.769
697.60, 2605.426
697.79, 2286.352
697.97, 2328.540
698.16, 2942.931
698.35, 2749.193
698.53, 2364.175
698.72, 2318.301
698.91, 3131.344
699.09, 2779.094
699.28, 2389.980
699.47, 2478.452
699.65, 2552.588
699.84, 3022.392
700.03, 2451.009
700.21, 2363.766
700.40, 2566.924
700.59, 2779.913
700.77, 2464.935
700.96, 2362.127
701.15, 2954.400
701.33, 2983.890
701.52, 2216.312
701.70, 2406.363
701.89, 3130.525
702.08, 2677.105
702.26, 2297.002
702.45, 2213.445
702.64, 2441.179
702.82, 2757.795
703.01, 2437.083
703.20, 2310.518
703.38, 3117.828
703.57, 2609.522
703.76, 2387.112
703.94, 2370.729
704.13, 2627.544
704.31, 2491.149
704.50, 2525.965
704.69, 2511.219
704.87, 2666.865
705.06, 2756.156
705.25, 2398.581
705.43, 2329.360
705.62, 2777.865
705.80, 2873.300
705.99, 2452.647
706.18, 2311.338
706.36, 2754.518
706.55, 2601.330
706.73, 2348.611
706.92, 2387.522
707.11, 2876.577
707.29, 3009.285
707.48, 2523.917
707.66, 2417.832
707.85, 2557.094
708.04, 2757.795
708.22, 2384.245
708.41, 2400.629
708.59, 3040.005
708.78, 2765.987
708.97, 2157.740
709.15, 2444.046
709.34, 2813.090
709.52, 2759.433
709.71, 2349.839
709.90, 2296.183
710.08, 2997.407
710.27, 2439.950
710.45, 2349.020
710.64, 2309.699
710.82, 2870.843
711.01, 2652.120
711.20, 2408.821
711.38, 2231.876
711.57, 2672.190
711.75, 2561.190
711.94, 2421.928
712.12, 2430.120
712.31, 2691.850
712.50, 2942.522
712.68, 2287.581
712.87, 2485.824
713.05, 2713.968
713.24, 2550.131
713.42, 2350.249
713.61, 2284.304
713.79, 2905.248
713.98, 2552.179
714.17, 2355.574
714.35, 2360.898
714.54, 2664.817
714.72, 2637.784
714.91, 2336.732
715.09, 2481.319
715.28, 2591.090
715.46, 3084.241
715.65, 2307.242
715.83, 2315.024
716.02, 3001.503
716.21, 2881.492
716.39, 2395.304
716.58, 2227.371
716.76, 2705.367
716.95, 2975.289
717.13, 2311.747
717.32, 2267.921
717.50, 3119.876
717.69, 2963.001
717.87, 2314.205
718.06, 2352.297
718.24, 2609.931
718.43, 2886.817
718.61, 2435.035
718.80, 2348.611
718.98, 2788.924
719.17, 2698.813
719.35, 2447.323
719.54, 2407.182
719.72, 2647.614
719.91, 2857.736
720.09, 2244.164
720.28, 2429.710
720.46, 2738.544
720.65, 3203.842
720.83, 2330.588
721.02, 2455.515
721.20, 3019.525
721.39, 2762.300
721.57, 2318.710
721.76, 2554.227
721.94, 2801.621
722.13, 2757.795
722.31, 2414.965
722.50, 2447.732
722.68, 2713.968
722.87, 3017.068
723.05, 2328.131
723.24, 3019.935
723.42, 2593.138
723.61, 3113.732
723.79, 2274.474
723.98, 2291.267
724.16, 3044.920
724.34, 2595.186
724.53, 2496.474
724.71, 2575.935
724.90, 2696.356
725.08, 2907.706
725.27, 2329.360
725.45, 2226.142
725.64, 2573.068
725.82, 3091.204
726.01, 2204.024
726.19, 2341.647
726.38, 2661.540
726.56, 2586.585
726.74, 2530.470
726.93, 2350.659
727.11, 3407.410
727.30, 2758.614
727.48, 2391.208
727.67, 2407.592
727.85, 2814.728
728.04, 3028.127
728.22, 2402.677
728.40, 2450.190
728.59, 2884.359
728.77, 2786.466
728.96, 2287.172
729.14, 2342.057
729.33, 3311.975
729.51, 2873.710
729.69, 2491.149
729.88, 2326.083
730.06, 2836.437
730.25, 2857.736
730.43, 2344.105
730.61, 2410.869
730.80, 2764.758
730.98, 3019.525
731.17, 2438.312
731.35, 2322.397
731.54, 2788.514
731.72, 2957.676
731.90, 2322.806
732.09, 2408.002
732.27, 2981.433
732.46, 3050.245
732.64, 2358.850
732.82, 2326.902
733.01, 2796.706
733.19, 2918.765
733.38, 2182.316
733.56, 2469.031
733.74, 2876.577
733.93, 2942.112
734.11, 2383.836
734.29, 2265.873
734.48, 2893.780
734.66, 2733.629
734.85, 2239.249
735.03, 2294.954
735.21, 2799.573
735.40, 3164.521
735.58, 2425.614
735.77, 2362.127
735.95, 2979.795
736.13, 2656.215
736.32, 2242.526
736.50, 2412.917
736.68, 2639.013
736.87, 3013.791
737.05, 2391.618
737.23, 2421.518
737.42, 2877.396
737.60, 2735.267
737.79, 2414.555
737.97, 2290.448
738.15, 2968.736
738.34, 2776.226
738.52, 2421.928
738.70, 2478.861
738.89, 2961.363
739.07, 2714.787
739.25, 2506.304
739.44, 2381.788
739.62, 3058.846
739.80, 2653.758
739.99, 2267.101
740.17, 2453.057
740.35, 3156.739
740.54, 2990.034
740.72, 2309.290
740.90, 2292.087
741.09, 2559.961
741.27, 2777.046
741.45, 2471.898
741.64, 2298.640
741.82, 2895.009
742.00, 2784.828
742.19, 2423.976
742.37, 2390.799
742.55, 2686.525
742.74, 2797.525
742.92, 2349.839
743.10, 2559.551
743.29, 2995.359
743.47, 3017.887
743.65, 2344.105
743.83, 2488.692
744.02, 2823.739
744.20, 2702.500
744.38, 2267.921
744.57, 2331.817
744.75, 2612.799
744.93, 2709.053
745.12, 2391.618
745.30, 2380.968
745.48, 3321.396
745.66, 2556.275
745.85, 2297.002
746.03, 2332.636
746.21, 3047.787
746.40, 2759.024
746.58, 2440.360
746.76, 2312.157
746.94, 3049.425
747.13, 2886.817
747.31, 2285.943
747.49, 2457.972
747.68, 2832.750
747.86, 2999.865
748.04, 2309.290
748.22, 2301.507
748.41, 3015.839
748.59, 2965.868
748.77, 2277.341
748.95, 2458.382
749.14, 2635.326
749.32, 2829.883
749.50, 2380.149
749.68, 2268.740
749.87, 2643.518
750.05, 2828.245
750.23, 2369.090
750.42, 2391.208
750.60, 2742.640
750.78, 2718.474
750.96, 2500.160
751.15, 2527.193
751.33, 2475.585
751.51, 3015.020
751.69, 2420.699
751.87, 2372.367
752.06, 2557.094
752.24, 2762.710
752.42, 2356.802
752.60, 2255.633
752.79, 3107.178
752.97, 2871.252
753.15, 2303.146
753.33, 2402.267
753.52, 2693.488
753.70, 2813.499
753.88, 2337.552
754.06, 2430.120
754.24, 2658.263
754.43, 3060.075
754.61, 2357.622
754.79, 2349.839
754.97, 2673.009
755.16, 2981.433
755.34, 2474.765
755.52, 2493.607
755.70, 2853.640
755.88, 2595.596
756.07, 2363.766
756.25, 2333.046
756.43, 2893.370
756.61, 2564.876
756.79, 2466.164
756.98, 2264.644
757.16, 2851.592
757.34, 2563.647
757.52, 2338.371
757.70, 2377.282
757.89, 2957.676
758.07, 3376.281
758.25, 2409.640
758.43, 2248.260
758.61, 2861.832
758.80, 2897.876
758.98, 2469.031
759.16, 2404.725
759.34, 2955.628
759.52, 2682.839
759.70, 2412.507
759.89, 2431.758
760.07, 2735.267
760.25, 2741.411
760.43, 2228.600
760.61, 2430.939
760.79, 2674.647
760.98, 2752.470
761.16, 2407.182
761.34, 2476.813
761.52, 2398.171
761.70, 2775.407
761.88, 2380.968
762.07, 2352.707
762.25, 3098.986
762.43, 2784.009
762.61, 2337.961
762.79, 2258.500
762.97, 2770.902
763.15, 2588.632
763.34, 2275.293
763.52, 2303.555
763.70, 2992.492
763.88, 2928.595
764.06, 2479.271
764.24, 2257.681
764.42, 2885.588
764.61, 2686.116
764.79, 2259.729
764.97, 2446.503
765.15, 2586.175
765.33, 3001.093
765.51, 2389.980
765.69, 2625.906
765.87, 2983.890
766.06, 2950.713
766.24, 2301.098
766.42, 2265.873
766.60, 2825.787
766.78, 3074.001
766.96, 2512.038
767.14, 2379.330
767.32, 2945.798
767.50, 2577.164
767.69, 2428.072
767.87, 2485.005
768.05, 3034.270
768.23, 2648.433
768.41, 2564.876
768.59, 2278.160
768.77, 2797.525
768.95, 2753.289
769.13, 2325.673
769.32, 2348.611
769.50, 2888.865
769.68, 2842.990
769.86, 2439.950
770.04, 2310.928
770.22, 2491.559
770.40, 2781.142
770.58, 2238.020
770.76, 2299.050
770.94, 3056.798
771.12, 2559.961
771.30, 2305.603
771.49, 2482.548
771.67, 2860.193
771.85, 2782.780
772.03, 2367.861
772.21, 2399.810
772.39, 2754.928
772.57, 2941.702
772.75, 2294.135
772.93, 2446.503
773.11, 2960.134
773.29, 2835.618
773.47, 2385.474
773.65, 2466.574
773.83, 3024.031
774.01, 2625.086
774.19, 2410.050
774.38, 2541.939
774.56, 3096.119
774.74, 2931.053
774.92, 2342.467
775.10, 2363.766
775.28, 2600.101
775.46, 3055.160
775.64, 2311.747
775.82, 2332.227
776.00, 2484.186
776.18, 2640.241
776.36, 2314.614
776.54, 2530.061
776.72, 2729.942
776.90, 2797.116
777.08, 2336.323
777.26, 2411.278
777.44, 2697.584
777.62, 2899.924
777.80, 2339.600
777.98, 2414.146
778.16, 2713.968
778.34, 2906.068
778.52, 2527.603
778.70, 2401.448
778.88, 2766.806
779.06, 2559.551
779.24, 2360.489
779.42, 2474.765
779.60, 3049.835
779.78, 2834.389
779.96, 2290.448
780.14, 2351.887
780.32, 2861.012
780.50, 3020.754
780.68, 2382.197
780.86, 2387.932
781.04, 2810.632
781.22, 2669.322
781.40, 2498.112
781.58, 2319.939
781.76, 2772.130
781.94, 2908.525
782.12, 2440.360
782.30, 2539.481
782.48, 2876.986
782.66, 2909.344
782.84, 2419.880
783.02, 2471.898
783.20, 2968.326
783.38, 2963.411
783.56, 2306.422
783.74, 2305.603
783.92, 2727.894
784.10, 2890.913
784.28, 2417.832
784.46, 2413.326
784.64, 2856.916
784.82, 2833.979
785.00, 2322.806
785.18, 2281.437
785.36, 2973.651
785.54, 2489.920
785.72, 2416.194
785.90, 2339.190
786.08, 2544.806
786.26, 2756.566
786.43, 2465.754
786.61, 2424.795
786.79, 3087.108
786.97, 3123.152
787.15, 2409.230
787.33, 2308.880
787.51, 2655.806
787.69, 3024.440
787.87, 2347.382
788.05, 2355.983
788.23, 3431.986
788.41, 2697.175
788.59, 2465.345
788.77, 2426.843
788.95, 2856.916
789.13, 2803.260
789.30, 2421.928
789.48, 2291.677
789.66, 2862.241
789.84, 2833.570
790.02, 2383.836
790.20, 2194.194
790.38, 2885.178
790.56, 2713.559
790.74, 2369.090
790.92, 2409.230
791.10, 2989.625
791.28, 3004.780
791.45, 2600.920
791.63, 2221.227
791.81, 3212.444
791.99, 2924.090
792.17, 2332.227
792.35, 2367.452
792.53, 2408.821
792.71, 2941.293
792.89, 2321.577
793.07, 2541.939
793.24, 2786.057
793.42, 3061.713
793.60, 2360.489
793.78, 2380.968
793.96, 2747.555
794.14, 2817.595
794.32, 2367.861
794.50, 2419.470
794.67, 2846.677
794.85, 2703.728
795.03, 2454.695
795.21, 2399.400
795.39, 2794.249
795.57, 2863.880
795.75, 2428.891
795.93, 2434.216
796.10, 3173.123
796.28, 2681.201
796.46, 2286.762
796.64, 2421.518
796.82, 2996.178
797.00, 3016.248
797.18, 2384.245
797.35, 2312.976
797.53, 2807.765
797.71, 2885.178
797.89, 2580.031
798.07, 2410.869
798.25, 2822.511
798.43, 3049.425
798.60, 2395.304
798.78, 2429.710
798.96, 3164.931
799.14, 2605.835
799.32, 2271.197
799.50, 2462.887
799.67, 2735.677
799.85, 2855.688
800.03, 2431.348
800.21, 2443.227
800.39, 2884.359
800.57, 2908.525
800.74, 2436.264
800.92, 2452.238
801.10, 2736.496
801.28, 2553.407
801.46, 2279.799
801.64, 2355.164
801.81, 3123.152
801.99, 2720.112
802.17, 2485.415
802.35, 2473.127
802.53, 2745.097
802.70, 2209.758
802.88, 2326.902
803.06, 2269.149
803.24, 2824.968
803.42, 2882.721
803.59, 2352.706
803.77, 2215.493
803.95, 3187.049
804.13, 2956.448
804.31, 2444.456
804.48, 2408.821
804.66, 2960.134
804.84, 2566.105
805.02, 2458.382
805.20, 2471.898
805.37, 2732.400
805.55, 2852.411
805.73, 2448.961
805.91, 2493.197
806.08, 2994.130
806.26, 2802.031
806.44, 2374.005
806.62, 2295.363
806.80, 2820.872
806.97, 2736.086
807.15, 2431.348
807.33, 2517.363
807.51, 2981.023
807.68, 2344.924
807.86, 2417.832
808.04, 2367.452
808.22, 2833.160
808.39, 4364.631
808.57, 2407.182
808.75, 2449.371
808.93, 2784.009
809.10, 2595.596
809.28, 2415.374
809.46, 2386.703
809.64, 3059.256
809.81, 2582.898
809.99, 2430.939
810.17, 2270.788
810.35, 3294.363
810.52, 2809.813
810.70, 2399.810
810.88, 2427.662
811.06, 2836.846
811.23, 3021.983
811.41, 2326.492
811.59, 2185.183
811.77, 2974.470
811.94, 2594.776
812.12, 2538.252
812.30, 2430.120
812.47, 2877.806
812.65, 3010.104
812.83, 2418.651
813.01, 2422.747
813.18, 2689.393
813.36, 2910.983
813.54, 2330.998
813.71, 2424.385
813.89, 3294.363
814.07, 2972.422
814.25, 2587.813
814.42, 2466.574
814.60, 3175.580
814.78, 2958.086
814.95, 2204.024
815.13, 2473.946
815.31, 2721.750
815.49, 3041.643
815.66, 2405.134
815.84, 2453.057
816.02, 3008.466
816.19, 2804.898
816.37, 2472.308
816.55, 2513.267
816.72, 3123.972
816.90, 2717.245
817.08, 2299.459
817.25, 2340.828
817.43, 3048.197
817.61, 2705.776
817.78, 2499.751
817.96, 2506.304
818.14, 2610.341
818.31, 2941.293
818.49, 2365.813
818.67, 2302.736
818.84, 2623.038
819.02, 2536.204
819.20, 2341.238
819.37, 2439.131
819.55, 2727.485
819.73, 2959.315
819.90, 2416.603
820.08, 2701.271
820.26, 2969.145
820.43, 3004.780
820.61, 2489.101
820.79, 2356.393
820.96, 2842.581
821.14, 2682.429
821.32, 2439.540
821.49, 2363.356
821.67, 2767.625
821.85, 2734.448
822.02, 2448.142
822.20, 2418.242
822.37, 3157.968
822.55, 2530.061
822.73, 2561.599
822.90, 2495.245
823.08, 3176.809
823.26, 2683.249
823.43, 2572.658
823.61, 2503.027
823.78, 2960.544
823.96, 2608.293
824.14, 2529.241
824.31, 2396.943
824.49, 3166.160
824.67, 3123.972
824.84, 2461.658
825.02, 2432.168
825.19, 2991.673
825.37, 3284.123
825.55, 2435.444
825.72, 2369.090
825.90, 2583.308
826.07, 2724.618
826.25, 2573.887
826.43, 2323.216
826.60, 2461.249
826.78, 2823.739
826.95, 2394.075
827.13, 2303.146
827.31, 3131.754
827.48, 2921.632
827.66, 2419.470
827.83, 2627.953
828.01, 2738.134
828.19, 2781.551
828.36, 2400.629
828.54, 2568.562
828.71, 2707.005
828.89, 2763.529
829.06, 2349.020
829.24, 2675.057
829.42, 2739.773
829.59, 3029.355
829.77, 2452.647
829.94, 2394.895
830.12, 2880.673
830.29, 2623.858
830.47, 2384.245
830.65, 2282.666
830.82, 3160.425
831.00, 2808.994
831.17, 2402.267
831.35, 2433.396
831.52, 2810.223
831.70, 2907.296
831.87, 2245.393
832.05, 2276.932
832.23, 2796.297
832.40, 2800.802
832.58, 2534.976
832.75, 2392.847
832.93, 2734.038
833.10, 2723.389
833.28, 2547.673
833.45, 2401.448
833.63, 2895.418
833.80, 2506.714
833.98, 2435.854
834.15, 2513.267
834.33, 2939.245
834.51, 2804.079
834.68, 2336.323
834.86, 2263.825
835.03, 2770.492
835.21, 2796.706
835.38, 2415.784
835.56, 2419.880
835.73, 2888.455
835.91, 3003.961
836.08, 2318.710
836.26, 2490.740
836.43, 2852.411
836.61, 2915.488
836.78, 2363.356
836.96, 2290.448
837.13, 3280.846
837.31, 2935.968
837.48, 2523.098
837.66, 2322.397
837.83, 2881.902
838.01, 2961.363
838.18, 2167.980
838.36, 2157.740
838.53, 2711.920
838.71, 3162.064
838.88, 2231.876
839.06, 2308.061
839.23, 2885.998
839.41, 2822.920
839.58, 2306.422
839.76, 2159.378
839.93, 2985.119
840.11, 2967.097
840.28, 2238.839
840.46, 2337.142
840.63, 2571.839
840.81, 2812.271
840.98, 2217.541
841.15, 2255.223
841.33, 2937.197
841.50, 2671.370
841.68, 2328.131
841.85, 2335.913
842.03, 3125.610
842.20, 3051.064
842.38, 2168.799
842.55, 2192.555
842.73, 2882.721
842.90, 2727.485
843.08, 2291.267
843.25, 2447.732
843.42, 2801.621
843.60, 3031.403
843.77, 2217.541
843.95, 2246.212
844.12, 2482.957
844.30, 3019.116
844.47, 2226.142
844.64, 2184.773
844.82, 3288.219
844.99, 2791.381
845.17, 2297.411
845.34, 2143.404
845.52, 2833.570
845.69, 2996.997
845.87, 2331.408
846.04, 2224.094
846.21, 2866.747
846.39, 2895.418
846.56, 2307.242
846.74, 2209.349
846.91, 2785.647
847.08, 2686.935
847.26, 2112.275
847.43, 2208.120
847.61, 2793.020
847.78, 3137.898
847.95, 2251.127
848.13, 2208.939
848.30, 2835.618
848.48, 2734.038
848.65, 2276.112
848.83, 2258.910
849.00, 2733.629
849.17, 2882.311
849.35, 2269.149
849.52, 2162.655
849.69, 3006.828
849.87, 2753.699
850.04, 2189.688
850.22, 2147.910
850.39, 2788.105
850.56, 3059.665
850.74, 2192.146
850.91, 2163.884
851.09, 2682.429
851.26, 2912.212
851.43, 2111.865
851.61, 2299.869
851.78, 2646.385
851.95, 2763.939
852.13, 2203.205
852.30, 2125.792
852.48, 3348.019
852.65, 2867.566
852.82, 2189.688
853.00, 2195.832
853.17, 2972.422
853.34, 2455.924
853.52, 2215.493
853.69, 2043.873
853.86, 3009.695
854.04, 2873.710
854.21, 2289.629
854.38, 2152.415
854.56, 2634.917
854.73, 2588.223
854.90, 2283.485
855.08, 2190.098
855.25, 2896.647
855.42, 2473.127
855.60, 2360.079
855.77, 2277.341
855.95, 2903.610
856.12, 2934.330
856.29, 2158.559
856.46, 2288.810
856.64, 2778.684
856.81, 2925.728
856.98, 2306.013
857.16, 2252.356
857.33, 2597.644
857.50, 2951.533
857.68, 2153.644
857.85, 2278.980
858.02, 2661.540
858.20, 2689.802
858.37, 2256.042
858.54, 2147.090
858.72, 3469.259
858.89, 3069.905
859.06, 2229.009
859.24, 2176.172
859.41, 2901.153
859.58, 2948.665
859.75, 2216.312
859.93, 2212.216
860.10, 2901.153
860.27, 2994.540
860.45, 2216.312
860.62, 2278.980
860.79, 2854.459
860.97, 2949.485
861.14, 2276.112
861.31, 2263.005
861.48, 2879.444
861.66, 2540.300
861.83, 2177.400
862.00, 2156.511
862.17, 2616.485
862.35, 2954.400
862.52, 2219.179
862.69, 2310.109
862.87, 2954.809
863.04, 2930.643
863.21, 2122.515
863.38, 2262.186
863.56, 2930.643
863.73, 2723.389
863.90, 2175.762
864.07, 2409.640
864.25, 3152.234
864.42, 2665.636
864.59, 2112.275
864.76, 2192.146
864.94, 3045.330
865.11, 2652.120
865.28, 2131.935
865.45, 2238.839
865.63, 2820.053
865.80, 2620.171
865.97, 2188.050
866.14, 2114.323
866.32, 2920.403
866.49, 2675.876
866.66, 2343.695
866.83, 2175.352
867.01, 2734.038
867.18, 2741.411
867.35, 2072.544
867.52, 2120.876
867.70, 3075.230
867.87, 3190.326
868.04, 2182.725
868.21, 2188.050
868.38, 2867.156
868.56, 3124.791
868.73, 2234.334
868.90, 2140.947
869.07, 2737.725
869.24, 2893.370
869.42, 2214.673
869.59, 2423.157
869.76, 3133.802
869.93, 2693.488
870.11, 2294.135
870.28, 2212.216
870.45, 3187.049
870.62, 2881.902
870.79, 2262.596
870.97, 2308.470
871.14, 2999.455
871.31, 3005.189
871.48, 2273.655
871.65, 2415.374
871.82, 3193.602
872.00, 2916.308
872.17, 2204.843
872.34, 2298.231
872.51, 2786.057
872.68, 2943.750
872.86, 2370.729
873.03, 2214.264
873.20, 2888.865
873.37, 3341.875
873.54, 2185.592
873.71, 2258.500
873.89, 3242.344
874.06, 2956.038
874.23, 2206.482
874.40, 2301.917
874.57, 3234.971
874.74, 2816.367
874.92, 2308.880
875.09, 2122.515
875.26, 3128.067
875.43, 2972.831
875.60, 2225.323
875.77, 2272.836
875.95, 2655.396
876.12, 2921.223
876.29, 2179.039
876.46, 2326.902
876.63, 2781.961
876.80, 2936.378
876.97, 2407.592
877.15, 2151.596
877.32, 3090.794
877.49, 2739.773
877.66, 2535.795
877.83, 2318.301
878.00, 2682.839
878.17, 3332.864
878.34, 2211.397
878.52, 2320.758
878.69, 2875.758
878.86, 2593.548
879.03, 2143.814
879.20, 2169.618
879.37, 2875.758
879.54, 3366.041
879.71, 2153.234
879.89, 2235.153
880.06, 3149.776
880.23, 2791.791
880.40, 2249.079
880.57, 2357.622
880.74, 2755.747
880.91, 3171.075
881.08, 2325.673
881.25, 2369.090
881.42, 3083.012
881.60, 2744.278
881.77, 2265.053
881.94, 2197.470
882.11, 2748.784
882.28, 2868.385
882.45, 2213.445
882.62, 2286.762
882.79, 3172.304
882.96, 2880.263
883.13, 2190.098
883.30, 2464.526
883.48, 3005.189
883.65, 2753.289
883.82, 2158.559
883.99, 2191.327
884.16, 3145.680
884.33, 2716.426
884.50, 2272.836
884.67, 2372.777
884.84, 2891.322
885.01, 2735.677
885.18, 2312.566
885.35, 2221.227
885.52, 2494.426
885.69, 2825.787
885.87, 2228.600
886.04, 2240.068
886.21, 2917.946
886.38, 3019.935
886.55, 2176.991
886.72, 2242.526
886.89, 3029.765
887.06, 2784.828
887.23, 2259.319
887.40, 2300.278
887.57, 2848.725
887.74, 2896.647
887.91, 2050.836
888.08, 2137.670
888.25, 2981.433
888.42, 3268.149
888.59, 2331.408
888.76, 2243.345
888.93, 2834.798
889.10, 2592.319
889.27, 2296.183
889.44, 2301.507
889.61, 2788.105
889.78, 2734.038
889.95, 2403.496
890.12, 2435.444
890.29, 3017.887
890.46, 2750.832
890.63, 2154.463
890.80, 2202.386
890.97, 2771.311
891.15, 2959.724
891.32, 2222.046
891.49, 2329.360
891.66, 3224.732
891.83, 2796.297
892.00, 2302.326
892.17, 2399.400
892.34, 2968.326
892.51, 2979.795
892.68, 2314.614
892.84, 2155.282
893.01, 2676.286
893.18, 2993.721
893.35, 2295.363
893.52, 2181.906
893.69, 2972.422
##END=
##TITLE= SPECTRASUITE EXPORTED SPECTRA: REFERENCE SPECTRUM
##JCAMP-DX= 5 $$EXPORTED SPECTRASUITE FILE
##DATA TYPE= UV/VIS SPECTRUM
##SAMPLE DESCRIPTION= REFERENCE SPECTRUM
##BLOCK_ID=3
##ORIGIN= OCEANOPTICS EXPORT
##OWNER= hugo
##SPECTROMETER/DATA SYSTEM= OCEANOPTICS EXPORT
##DATA PROCESSING= DARK:Yes REFERENCE:Yes
##DATA PROCESSING= BOXCAR:0 ELECTRICAL DARK: false
##.ACQUISITION TIME= 400
##.AVERAGES= 5
##XUNITS= NANOMETERS
##YUNITS= Transmission (%)
##XFACTOR= 1.0
##YFACTOR= 1.0
##FIRSTX= 176.36
##LASTX= 893.69
##FIRSTY= 32822.795
##MINY= 1555.227
##MAXY= 32822.795
##NPOINTS= 3648
##XYPOINTS= (XY..XY)
176.36, 32822.795
176.58, 32822.795
176.80, 32822.795
177.02, 1606.017
177.24, 1555.227
177.47, 2494.426
177.69, 2473.127
177.91, 2913.031
178.13, 2563.647
178.35, 2351.068
178.57, 2306.422
178.79, 2527.603
179.01, 2587.813
179.23, 2224.913
179.46, 2371.548
179.68, 2520.230
179.90, 2469.441
180.12, 2209.349
180.34, 2286.352
180.56, 2507.533
180.78, 2834.389
181.00, 2267.511
181.22, 2430.939
181.44, 2572.658
181.66, 2689.802
181.89, 2387.112
182.11, 2228.600
182.33, 2618.533
182.55, 3069.905
182.77, 2455.105
182.99, 2546.854
183.21, 2299.869
183.43, 2607.064
183.65, 2270.788
183.87, 2169.618
184.09, 2863.470
184.31, 2763.119
184.53, 2290.448
184.76, 2257.271
184.98, 2557.094
185.20, 2841.352
185.42, 2454.695
185.64, 2308.470
185.86, 2948.665
186.08, 3187.868
186.30, 2246.622
186.52, 2242.116
186.74, 2759.024
186.96, 2693.488
187.18, 2345.743
187.40, 2263.005
187.62, 2871.252
187.84, 2867.156
188.06, 2414.965
188.28, 2343.695
188.51, 2840.942
188.73, 2831.112
188.95, 2349.020
189.17, 2441.588
189.39, 2735.267
189.61, 2750.422
189.83, 2421.518
190.05, 2383.016
190.27, 2939.245
190.49, 2727.075
190.71, 2187.640
190.93, 2273.245
191.15, 2397.762
191.37, 2788.514
191.59, 2358.441
191.81, 2416.194
192.03, 2678.743
192.25, 2763.529
192.47, 2269.969
192.69, 2319.939
192.91, 2756.566
193.13, 2702.500
193.35, 2187.231
193.57, 2446.503
193.79, 2550.540
194.01, 2906.068
194.23, 2356.393
194.45, 2253.585
194.67, 2853.640
194.89, 2504.666
195.11, 2218.360
195.33, 2150.777
195.55, 2595.186
195.77, 2715.607
195.99, 2379.740
196.21, 2260.548
196.43, 2760.662
196.65, 2576.345
196.87, 2468.622
197.09, 2326.492
197.31, 2897.057
197.53, 2915.488
197.75, 2398.991
197.97, 2367.861
198.19, 2862.241
198.41, 3063.761
198.63, 2292.496
198.85, 2328.950
199.07, 2854.049
199.29, 2498.522
199.51, 2300.688
199.73, 2430.529
199.95, 2557.913
200.17, 2790.153
200.39, 2389.980
200.61, 2388.341
200.83, 2529.651
201.05, 2784.418
201.27, 2269.149
201.49, 2334.275
201.71, 2908.935
201.93, 2861.012
202.15, 2288.810
202.37, 2298.231
202.59, 2754.518
202.81, 2619.762
203.03, 2399.400
203.25, 2344.924
203.47, 2646.385
203.69, 2662.359
203.91, 2403.906
204.13, 2232.286
204.35, 2517.773
204.57, 2891.732
204.79, 2242.935
205.01, 2277.751
205.23, 2883.950
205.45, 2663.179
205.67, 2161.836
205.89, 2315.843
206.10, 2905.248
206.32, 2454.286
206.54, 2211.397
206.76, 2317.891
206.98, 2680.791
207.20, 2583.308
207.42, 2356.393
207.64, 2193.784
207.86, 2567.334
208.08, 3124.791
208.30, 2266.692
208.52, 2253.994
208.74, 2842.990
208.96, 2860.193
209.18, 2164.293
209.40, 2487.053
209.62, 2593.548
209.83, 2673.828
210.05, 2232.696
210.27, 2281.437
210.49, 2624.267
210.71, 2526.784
210.93, 2361.718
211.15, 2392.437
211.37, 2509.581
211.59, 2571.020
211.81, 2222.456
212.03, 2252.766
212.25, 2739.363
212.47, 2597.644
212.68, 2270.788
212.90, 2359.670
213.12, 2645.566
213.34, 2878.625
213.56, 2199.518
213.78, 2267.921
214.00, 2955.219
214.22, 2452.647
214.44, 2343.695
214.66, 2309.290
214.88, 2620.171
215.09, 2686.116
215.31, 2068.858
215.53, 2312.566
215.75, 2763.939
215.97, 2481.729
216.19, 2415.784
216.41, 2433.396
216.63, 2572.249
216.85, 2937.197
217.06, 2383.836
217.28, 2295.773
217.50, 2499.751
217.72, 2832.750
217.94, 2380.559
218.16, 2248.260
218.38, 2489.920
218.60, 2522.278
218.82, 2308.061
219.03, 2337.142
219.25, 2704.548
219.47, 2721.341
219.69, 2313.795
219.91, 2421.928
220.13, 2985.529
220.35, 2695.127
220.57, 2337.552
220.78, 2466.164
221.00, 2731.581
221.22, 2823.739
221.44, 2319.529
221.66, 2229.828
221.88, 2952.352
222.10, 2417.422
222.31, 2193.784
222.53, 2209.758
222.75, 2511.629
222.97, 2550.950
223.19, 2306.422
223.41, 2343.286
223.63, 2536.204
223.84, 3015.429
224.06, 2319.120
224.28, 2318.710
224.50, 2856.097
224.72, 2661.131
224.94, 2258.090
225.16, 2338.780
225.37, 3056.389
225.59, 2680.382
225.81, 2300.278
226.03, 2375.234
226.25, 2912.212
226.47, 2559.961
226.68, 2333.456
226.90, 2340.828
227.12, 2542.758
227.34, 2841.352
227.56, 2223.275
227.78, 2275.293
227.99, 2651.300
228.21, 2664.817
228.43, 2420.699
228.65, 2335.913
228.87, 2732.400
229.09, 2582.489
229.30, 2383.426
229.52, 2221.636
229.74, 2731.171
229.96, 2953.990
230.18, 2347.791
230.39, 2312.157
230.61, 2699.223
230.83, 2600.920
231.05, 2247.441
231.27, 2380.559
231.49, 2573.887
231.70, 2759.433
231.92, 2282.256
232.14, 2270.378
232.36, 2545.625
232.58, 2832.750
232.79, 2202.386
233.01, 2268.740
233.23, 2687.754
233.45, 2561.599
233.67, 2256.862
233.88, 2331.408
234.10, 2939.245
234.32, 2870.433
234.54, 2289.219
234.75, 2292.906
234.97, 2754.928
235.19, 2919.994
235.41, 2333.456
235.63, 2310.109
235.84, 2957.676
236.06, 2454.286
236.28, 2314.205
236.50, 2214.673
236.72, 2461.658
236.93, 2580.850
237.15, 2281.028
237.37, 2225.323
237.59, 2842.581
237.80, 2507.943
238.02, 2278.160
238.24, 2266.692
238.46, 2786.057
238.67, 2949.485
238.89, 2381.788
239.11, 2363.766
239.33, 2551.359
239.55, 2569.382
239.76, 2434.625
239.98, 2237.611
240.20, 2671.370
240.42, 2601.330
240.63, 2337.142
240.85, 2296.183
241.07, 2757.795
241.29, 2841.761
241.50, 2233.515
241.72, 2366.633
241.94, 2607.064
242.16, 3029.765
242.37, 2296.592
242.59, 2303.965
242.81, 2391.618
243.03, 2777.455
243.24, 2273.655
243.46, 2421.928
243.68, 2820.053
243.90, 2476.813
244.11, 2225.323
244.33, 2249.079
244.55, 2603.787
244.76, 2605.835
244.98, 2414.555
245.20, 2240.068
245.42, 2741.821
245.63, 2511.629
245.85, 2207.710
246.07, 2283.485
246.29, 2738.544
246.50, 2742.640
246.72, 2384.655
246.94, 2435.444
247.15, 2555.455
247.37, 2919.584
247.59, 2254.404
247.81, 2416.603
248.02, 2623.038
248.24, 2807.356
248.46, 2337.552
248.67, 2266.692
248.89, 2779.913
249.11, 2780.732
249.33, 2393.256
249.54, 2275.293
249.76, 2630.001
249.98, 2446.503
250.19, 2272.836
250.41, 2223.684
250.63, 2757.385
250.84, 2546.444
251.06, 2304.374
251.28, 2362.537
251.50, 2442.408
251.71, 2670.142
251.93, 2290.039
252.15, 2250.718
252.36, 2586.994
252.58, 3052.702
252.80, 2344.515
253.01, 2510.810
253.23, 2775.407
253.45, 2600.920
253.66, 2327.721
253.88, 2346.563
254.10, 2538.252
254.31, 2803.669
254.53, 2156.921
254.75, 2349.430
254.97, 2953.581
255.18, 2686.525
255.40, 2345.743
255.62, 2301.098
255.83, 2516.134
256.05, 2762.300
256.27, 2299.459
256.48, 2329.769
256.70, 2715.197
256.92, 2738.134
257.13, 2457.972
257.35, 2217.950
257.57, 2901.562
257.78, 2695.536
258.00, 2475.585
258.21, 2444.456
258.43, 2845.448
258.65, 2721.750
258.86, 2321.577
259.08, 2351.887
259.30, 2855.688
259.51, 2901.153
259.73, 2176.991
259.95, 2386.703
260.16, 2798.344
260.38, 2958.086
260.60, 2202.795
260.81, 2302.736
261.03, 2733.219
261.25, 2487.053
261.46, 2355.983
261.68, 2299.869
261.89, 2567.334
262.11, 2586.585
262.33, 2340.419
262.54, 2116.780
262.76, 2761.481
262.98, 2726.666
263.19, 2248.260
263.41, 2299.459
263.62, 2645.976
263.84, 2721.341
264.06, 2315.433
264.27, 2359.670
264.49, 2661.950
264.71, 2695.127
264.92, 2414.146
265.14, 2459.610
265.35, 2742.230
265.57, 2767.215
265.79, 2354.345
266.00, 2367.452
266.22, 2944.569
266.43, 2514.906
266.65, 2419.061
266.87, 2199.109
267.08, 2408.002
267.30, 2471.489
267.51, 2466.164
267.73, 2367.042
267.95, 2992.492
268.16, 2545.625
268.38, 2372.777
268.59, 2453.057
268.81, 2777.865
269.03, 2839.713
269.24, 2330.588
269.46, 2419.061
269.67, 2661.131
269.89, 2648.433
270.11, 2423.976
270.32, 2429.710
270.54, 2650.481
270.75, 3126.839
270.97, 2291.267
271.19, 2369.500
271.40, 2677.924
271.62, 2512.038
271.83, 2265.463
272.05, 2253.585
272.26, 2781.961
272.48, 2817.186
272.70, 2489.511
272.91, 2449.371
273.13, 2830.293
273.34, 2863.060
273.56, 2464.526
273.77, 2495.245
273.99, 3079.735
274.21, 3137.488
274.42, 2635.736
274.64, 2491.968
274.85, 2743.869
275.07, 2629.182
275.28, 2490.330
275.50, 2591.090
275.71, 2594.776
275.93, 2596.005
276.15, 2611.979
276.36, 2532.109
276.58, 2932.691
276.79, 2721.750
277.01, 2598.053
277.22, 2592.319
277.44, 3271.835
277.65, 2953.990
277.87, 2588.632
278.08, 2502.208
278.30, 3265.281
278.52, 2836.027
278.73, 2621.810
278.95, 2459.610
279.16, 2662.359
279.38, 2844.219
279.59, 2702.090
279.81, 2481.729
280.02, 3037.138
280.24, 3121.924
280.45, 2595.186
280.67, 2448.961
280.88, 2811.452
281.10, 3008.466
281.31, 2684.477
281.53, 2615.256
281.74, 2923.271
281.96, 2778.684
282.17, 2522.688
282.39, 2589.042
282.60, 2688.164
282.82, 2842.990
283.04, 2612.389
283.25, 2605.426
283.47, 2889.274
283.68, 2900.333
283.90, 2691.031
284.11, 2585.765
284.33, 2696.356
284.54, 2819.643
284.76, 2568.972
284.97, 2768.854
285.19, 2847.086
285.40, 3027.307
285.62, 2795.477
285.83, 2611.160
286.05, 2923.680
286.26, 2858.964
286.48, 2665.636
286.69, 2742.640
286.91, 2706.596
287.12, 3254.632
287.33, 2586.994
287.55, 2588.632
287.76, 3067.448
287.98, 3040.414
288.19, 2924.909
288.41, 2512.038
288.62, 2961.772
288.84, 3015.020
289.05, 2543.168
289.27, 2579.621
289.48, 3130.525
289.70, 2772.130
289.91, 2795.068
290.13, 2691.441
290.34, 3101.034
290.56, 3024.850
290.77, 2754.518
290.99, 2711.511
291.20, 2876.577
291.41, 2867.156
291.63, 2773.769
291.84, 2919.584
292.06, 3107.178
292.27, 2984.300
292.49, 2720.522
292.70, 2970.783
292.92, 3146.499
293.13, 3201.794
293.35, 2848.315
293.56, 2831.931
293.77, 2938.016
293.99, 3304.602
294.20, 2769.263
294.42, 2850.772
294.63, 3182.134
294.85, 3337.370
295.06, 2796.706
295.28, 2867.975
295.49, 2839.304
295.70, 3404.543
295.92, 2891.322
296.13, 3033.042
296.35, 3449.599
296.56, 3181.724
296.78, 2844.219
296.99, 2921.223
297.20, 3160.016
297.42, 3386.931
297.63, 3019.525
297.85, 2982.662
298.06, 3139.536
298.28, 3316.071
298.49, 2911.392
298.70, 3001.503
298.92, 3497.111
299.13, 3533.156
299.35, 3156.739
299.56, 3035.499
299.77, 3076.868
299.99, 3207.119
300.20, 3122.333
300.42, 2992.902
300.63, 3274.702
300.85, 3567.152
301.06, 3242.344
301.27, 3125.200
301.49, 3324.672
301.70, 3465.163
301.92, 3194.831
302.13, 3148.547
302.34, 3384.883
302.56, 3593.776
302.77, 3181.724
302.99, 3204.252
303.20, 3498.750
303.41, 3486.462
303.63, 3252.174
303.84, 3150.186
304.05, 3285.351
304.27, 3497.931
304.48, 3308.289
304.70, 3187.868
304.91, 3638.012
305.12, 3597.871
305.34, 3191.555
305.55, 3258.318
305.77, 3368.909
305.98, 3709.281
306.19, 3321.396
306.41, 3456.562
306.62, 3495.883
306.83, 3785.056
307.05, 3384.064
307.26, 3356.621
307.47, 3891.550
307.69, 3941.930
307.90, 3463.934
308.12, 3451.237
308.33, 3762.119
308.54, 4073.819
308.76, 3283.713
308.97, 3561.008
309.18, 3864.107
309.40, 3653.576
309.61, 3629.820
309.82, 3418.879
310.04, 3787.513
310.25, 4057.436
310.46, 3514.314
310.68, 3619.580
310.89, 3904.248
311.11, 3667.502
311.32, 3640.060
311.53, 3639.240
311.75, 4013.609
311.96, 4016.886
312.17, 3757.203
312.39, 3761.709
312.60, 3930.052
312.81, 4129.115
313.03, 3777.683
313.24, 3701.499
313.45, 3921.860
313.67, 4121.742
313.88, 3791.200
314.09, 3806.355
314.31, 4011.561
314.52, 4009.513
314.73, 3778.912
314.95, 3812.499
315.16, 4309.336
315.37, 4232.742
315.58, 3806.355
315.80, 3680.200
316.01, 3919.812
316.22, 4083.240
316.44, 3887.045
316.65, 3974.288
316.86, 4089.794
317.08, 4215.539
317.29, 3936.196
317.50, 3744.916
317.72, 3992.720
317.93, 4339.236
318.14, 3885.406
318.35, 4081.192
318.57, 4102.491
318.78, 4357.258
318.99, 4014.019
319.21, 3865.746
319.42, 4487.919
319.63, 4116.008
319.85, 3889.093
320.06, 4099.214
320.27, 4222.502
320.48, 4017.296
320.70, 4041.871
320.91, 4139.354
321.12, 4418.697
321.34, 4406.410
321.55, 4172.532
321.76, 4159.834
321.97, 4570.657
322.19, 4396.579
322.40, 4321.214
322.61, 4322.033
322.83, 4481.365
323.04, 4522.734
323.25, 4398.218
323.46, 4428.937
323.68, 4724.254
323.89, 4523.144
324.10, 4419.926
324.31, 4688.620
324.53, 4815.594
324.74, 5008.103
324.95, 4689.029
325.16, 4835.254
325.38, 5087.154
325.59, 5155.147
325.80, 4781.597
326.01, 4708.280
326.23, 5316.936
326.44, 5110.092
326.65, 4793.066
326.86, 4886.044
327.08, 5001.549
327.29, 5057.254
327.50, 4767.671
327.71, 4896.693
327.93, 4660.358
328.14, 4931.099
328.35, 4770.948
328.56, 4930.280
328.78, 5073.638
328.99, 5467.667
329.20, 4858.601
329.41, 4955.675
329.63, 5257.545
329.84, 5112.549
330.05, 4971.239
330.26, 4896.693
330.48, 4869.660
330.69, 5081.420
330.90, 5019.981
331.11, 4833.616
331.32, 5136.715
331.54, 5345.608
331.75, 4999.911
331.96, 5151.461
332.17, 5615.121
332.39, 5110.501
332.60, 5033.088
332.81, 4974.516
333.02, 5195.697
333.23, 5167.435
333.45, 5142.040
333.66, 5244.848
333.87, 5470.944
334.08, 5392.711
334.29, 5269.833
334.51, 5371.822
334.72, 5615.940
334.93, 5583.582
335.14, 5388.206
335.35, 5357.077
335.57, 5511.494
335.78, 5630.276
335.99, 5422.202
336.20, 5243.210
336.41, 5560.645
336.63, 5974.334
336.84, 5434.080
337.05, 5740.047
337.26, 6058.301
337.47, 5728.169
337.69, 5804.763
337.90, 5658.947
338.11, 6032.497
338.32, 6316.755
338.53, 5722.434
338.74, 5755.202
338.96, 6277.843
339.17, 6496.157
339.38, 6326.585
339.59, 6081.648
339.80, 6334.367
340.01, 6499.434
340.23, 6255.725
340.44, 5989.899
340.65, 6501.482
340.86, 6409.733
341.07, 6167.253
341.28, 6266.375
341.50, 6630.504
341.71, 6478.135
341.92, 6434.308
342.13, 6447.825
342.34, 6640.743
342.55, 6521.142
342.77, 6448.234
342.98, 6458.474
343.19, 6856.190
343.40, 6904.112
343.61, 6641.972
343.82, 6755.020
344.03, 6741.504
344.25, 7151.916
344.46, 6660.814
344.67, 6924.592
344.88, 6988.898
345.09, 7180.998
345.30, 6892.234
345.51, 7031.086
345.73, 7277.662
345.94, 7185.503
346.15, 7196.972
346.36, 7071.636
346.57, 7305.514
346.78, 7150.688
346.99, 7159.699
347.21, 7299.370
347.42, 7243.665
347.63, 7298.141
347.84, 7242.437
348.05, 7167.481
348.26, 7385.794
348.47, 7286.263
348.68, 7159.699
348.89, 7353.437
349.11, 7546.765
349.32, 7619.263
349.53, 7086.791
349.74, 7434.536
349.95, 7301.418
350.16, 7692.171
350.37, 7289.950
350.58, 7535.706
350.79, 7761.392
351.01, 7796.207
351.22, 7593.459
351.43, 7467.304
351.64, 7882.632
351.85, 7843.720
352.06, 7551.680
352.27, 7611.071
352.48, 7812.591
352.69, 8102.174
352.90, 7665.547
353.12, 7759.344
353.33, 8003.462
353.54, 7862.562
353.75, 7857.646
353.96, 7819.554
354.17, 8051.794
354.38, 8322.126
354.59, 7927.687
354.80, 7984.621
355.01, 8122.244
355.22, 8252.904
355.43, 8102.584
355.64, 8290.587
355.86, 8468.760
356.07, 8573.207
356.28, 8331.956
356.49, 8016.978
356.70, 8484.325
356.91, 8875.897
357.12, 8560.509
357.33, 8367.591
357.54, 8778.004
357.75, 8767.764
357.96, 8396.262
358.17, 8507.672
358.38, 8794.387
358.59, 8864.428
358.80, 8691.579
359.02, 8653.078
359.23, 8818.553
359.44, 9140.085
359.65, 8744.417
359.86, 9124.520
360.07, 9118.786
360.28, 8886.546
360.49, 9099.944
360.70, 9168.347
360.91, 9278.937
361.12, 9336.280
361.33, 9235.929
361.54, 9291.225
361.75, 9678.291
361.96, 9591.866
362.17, 9627.501
362.38, 9525.512
362.59, 10137.036
362.80, 9813.457
363.01, 9561.147
363.22, 9611.527
363.43, 9522.645
363.64, 10092.800
363.85, 9540.258
364.06, 9863.427
364.27, 10049.792
364.48, 10227.146
364.69, 9803.626
364.90, 9772.497
365.11, 10156.696
365.33, 10275.478
365.54, 9941.660
365.75, 10240.253
365.96, 10309.065
366.17, 10294.729
366.38, 10080.921
366.59, 10137.445
366.80, 10062.080
367.01, 10875.124
367.22, 9728.671
367.43, 10176.357
367.64, 10476.999
367.85, 10523.692
368.06, 10042.010
368.27, 10157.925
368.48, 10805.902
368.69, 10150.962
368.90, 10350.844
369.11, 10294.729
369.32, 10796.891
369.53, 10454.471
369.74, 10256.637
369.94, 10275.069
370.15, 10542.943
370.36, 10912.806
370.57, 10161.611
370.78, 10446.279
370.99, 10686.301
371.20, 10899.699
371.41, 10518.368
371.62, 10624.043
371.83, 10713.334
372.04, 10649.028
372.25, 10494.201
372.46, 10724.803
372.67, 10728.489
372.88, 11122.518
373.09, 10486.010
373.30, 10627.729
373.51, 10708.829
373.72, 11076.644
373.93, 10907.482
374.14, 10663.773
374.35, 11047.563
374.56, 11362.540
374.77, 11059.441
374.98, 10769.448
375.19, 11251.950
375.40, 11326.906
375.61, 11014.795
375.82, 11259.323
376.03, 11183.957
376.23, 11298.644
376.44, 11139.721
376.65, 10967.692
376.86, 11113.917
377.07, 11512.452
377.28, 11346.976
377.49, 11161.020
377.70, 11610.754
377.91, 11385.887
378.12, 11210.991
378.33, 11289.223
378.54, 11252.360
378.75, 11746.330
378.96, 11209.352
379.17, 11333.459
379.37, 11702.093
379.58, 11511.223
379.79, 11333.459
380.00, 11367.455
380.21, 11619.765
380.42, 11777.459
380.63, 11621.403
380.84, 11654.171
381.05, 11938.429
381.26, 12005.193
381.47, 11586.998
381.68, 11966.281
381.89, 12113.735
382.09, 11681.204
382.30, 11981.846
382.51, 11811.455
382.72, 12251.768
382.93, 11956.861
383.14, 11686.529
383.35, 12187.052
383.56, 12115.374
383.77, 12357.443
383.98, 12019.119
384.18, 12239.890
384.39, 12435.266
384.60, 12464.347
384.81, 11965.872
385.02, 11864.702
385.23, 12164.115
385.44, 12516.366
385.65, 12344.746
385.86, 12012.156
386.06, 12726.078
386.27, 12663.000
386.48, 12330.820
386.69, 12235.794
386.90, 12224.325
387.11, 12747.377
387.32, 12338.193
387.53, 12503.668
387.73, 12625.727
387.94, 12913.262
388.15, 12560.192
388.36, 12430.761
388.57, 13010.336
388.78, 12891.144
388.99, 12718.705
389.20, 12228.831
389.40, 13350.299
389.61, 12804.310
389.82, 12538.893
390.03, 12620.812
390.24, 13060.716
390.45, 12658.904
390.66, 12854.690
390.86, 12531.521
391.07, 12676.517
391.28, 12916.129
391.49, 12661.772
391.70, 12794.480
391.91, 12868.207
392.12, 13327.771
392.32, 12634.738
392.53, 13057.030
392.74, 13235.612
392.95, 13316.712
393.16, 12880.904
393.37, 12820.694
393.57, 13067.679
393.78, 13176.221
393.99, 13414.195
394.20, 13173.354
394.41, 13578.033
394.62, 13343.745
394.82, 13514.546
395.03, 13354.804
395.24, 13605.066
395.45, 13275.753
395.66, 13296.642
395.87, 13261.826
396.07, 13480.959
396.28, 13494.476
396.49, 13966.328
396.70, 13353.166
396.91, 13539.531
397.11, 13856.557
397.32, 13084.063
397.53, 13501.029
397.74, 13785.287
397.95, 13639.062
398.16, 13240.118
398.36, 13782.010
398.57, 13863.520
398.78, 13746.785
398.99, 13575.166
399.20, 13523.557
399.40, 13082.834
399.61, 14085.519
399.82, 13508.402
400.03, 13569.431
400.24, 13876.217
400.44, 13634.966
400.65, 13578.033
400.86, 13757.025
401.07, 13958.545
401.27, 14085.519
401.48, 13680.022
401.69, 13449.011
401.90, 14426.301
402.11, 13943.800
402.31, 13972.472
402.52, 13940.933
402.73, 13883.590
402.94, 13894.649
403.15, 13818.464
403.35, 13724.667
403.56, 14429.169
403.77, 14088.796
403.98, 13989.675
404.18, 13876.627
404.39, 14367.320
404.60, 14254.272
404.81, 14229.287
405.01, 14228.468
405.22, 14565.154
405.43, 14714.655
405.64, 14677.792
405.85, 14430.397
406.05, 14856.375
406.26, 14805.585
406.47, 14713.017
406.68, 14705.235
406.88, 15605.931
407.09, 14843.678
407.30, 14357.899
407.51, 14311.206
407.71, 15559.238
407.92, 14262.464
408.13, 14530.748
408.34, 14783.467
408.54, 14748.652
408.75, 14625.364
408.96, 15569.887
409.16, 15093.530
409.37, 15156.607
409.58, 15313.482
409.79, 15331.504
409.99, 15238.116
410.20, 15613.304
410.41, 14832.209
410.62, 14668.371
410.82, 15138.995
411.03, 15728.400
411.24, 15373.282
411.45, 15136.127
411.65, 15065.268
411.86, 15317.168
412.07, 15484.282
412.27, 15353.212
412.48, 15310.205
412.69, 15311.843
412.90, 16061.809
413.10, 15159.065
413.31, 15336.419
413.52, 15528.928
413.72, 15144.319
413.93, 15424.891
414.14, 15017.345
414.35, 15512.544
414.55, 15820.559
414.76, 15343.791
414.97, 15508.858
415.17, 15527.699
415.38, 15600.607
415.59, 15161.113
415.79, 15533.024
416.00, 16035.186
416.21, 16064.676
416.41, 15495.751
416.62, 14927.644
416.83, 16210.082
417.04, 16056.075
417.24, 15571.935
417.45, 15404.821
417.66, 15784.105
417.86, 15918.861
418.07, 15358.537
418.28, 15748.061
418.48, 16220.732
418.69, 15889.780
418.90, 15971.289
419.10, 15765.263
419.31, 15995.046
419.52, 16047.064
419.72, 15737.411
419.93, 15906.164
420.14, 16403.820
420.34, 16154.377
420.55, 15557.599
420.76, 16199.023
420.96, 15828.750
421.17, 15992.588
421.38, 15777.551
421.58, 15990.130
421.79, 16325.178
422.00, 16263.329
422.20, 15632.145
422.41, 15771.817
422.62, 15931.149
422.82, 16212.949
423.03, 15753.795
423.24, 16138.403
423.44, 15718.979
423.65, 15724.714
423.85, 15850.049
424.06, 15929.920
424.27, 16381.702
424.47, 16200.252
424.68, 16343.200
424.89, 16337.876
425.09, 16232.610
425.30, 16013.477
425.51, 15899.201
425.71, 15886.094
425.92, 16045.426
426.12, 16794.573
426.33, 15945.485
426.54, 15535.072
426.74, 16148.643
426.95, 16378.835
427.16, 15473.223
427.36, 16867.480
427.57, 16180.182
427.77, 16842.495
427.98, 16206.805
428.19, 16643.023
428.39, 16379.654
428.60, 16655.720
428.81, 16588.137
429.01, 15896.333
429.22, 16520.145
429.42, 16259.643
429.63, 16474.270
429.84, 16516.458
430.04, 16932.606
430.25, 16960.048
430.45, 16143.728
430.66, 17080.879
430.87, 16201.481
431.07, 16386.208
431.28, 16643.842
431.48, 16543.492
431.69, 16900.657
431.90, 16417.746
432.10, 17389.712
432.31, 16595.100
432.51, 17062.856
432.72, 17090.299
432.92, 17127.982
433.13, 16720.436
433.34, 16926.052
433.54, 17246.354
433.75, 16975.613
433.95, 16758.938
434.16, 17579.764
434.37, 16910.897
434.57, 17102.177
434.78, 17142.318
434.98, 17456.886
435.19, 17236.524
435.39, 17821.834
435.60, 17213.587
435.81, 17778.826
436.01, 17384.388
436.22, 16810.547
436.42, 17404.458
436.63, 18334.235
436.83, 18195.793
437.04, 17814.051
437.24, 17651.852
437.45, 17947.989
437.66, 17577.306
437.86, 17185.735
438.07, 17968.059
438.27, 17815.690
438.48, 17722.302
438.68, 17633.011
438.89, 17984.033
439.09, 18048.339
439.30, 18192.516
439.50, 17078.831
439.71, 18013.524
439.92, 17840.675
440.12, 17855.011
440.33, 17334.827
440.53, 18203.165
440.74, 17964.372
440.94, 17825.930
441.15, 17594.509
441.35, 17710.424
441.56, 17899.247
441.76, 18011.066
441.97, 17661.273
442.17, 18180.228
442.38, 17518.325
442.58, 17850.096
442.79, 17136.583
443.00, 17499.893
443.20, 18110.188
443.41, 17335.236
443.61, 17181.229
443.82, 17538.395
444.02, 17343.838
444.23, 17489.244
444.43, 17284.447
444.64, 17231.199
444.84, 17632.192
445.05, 17220.140
445.25, 17293.867
445.46, 17603.520
445.66, 16967.012
445.87, 17026.812
446.07, 17018.620
446.28, 17304.107
446.48, 17687.896
446.69, 17092.757
446.89, 17247.583
447.10, 17422.070
447.30, 17711.243
447.51, 17565.838
447.71, 18087.250
447.92, 17659.225
448.12, 18252.726
448.33, 17789.066
448.53, 17574.849
448.73, 18041.376
448.94, 19020.715
449.14, 18478.412
449.35, 18388.711
449.55, 18257.641
449.76, 18567.704
449.96, 18935.109
450.17, 18533.708
450.37, 18987.947
450.58, 18927.737
450.78, 18938.796
450.99, 18757.755
451.19, 18792.161
451.40, 18839.674
451.60, 18978.526
451.81, 19168.988
452.01, 18693.449
452.21, 18763.080
452.42, 18691.811
452.62, 17952.904
452.83, 18327.682
453.03, 18593.918
453.24, 18410.420
453.44, 18258.051
453.65, 18121.656
453.85, 18667.235
454.06, 18010.656
454.26, 18173.265
454.46, 18180.228
454.67, 17967.239
454.87, 18260.509
455.08, 18156.881
455.28, 17466.716
455.49, 18656.176
455.69, 18222.007
455.89, 17891.874
456.10, 17623.590
456.30, 18595.147
456.51, 18190.878
456.71, 17921.365
456.92, 17978.708
457.12, 18751.611
457.32, 18004.512
457.53, 18207.671
457.73, 18417.383
457.94, 18833.940
458.14, 18346.114
458.35, 18212.176
458.55, 17889.417
458.75, 18674.608
458.96, 18949.855
459.16, 18353.077
459.37, 18723.759
459.57, 18502.578
459.77, 18552.549
459.98, 18362.088
460.18, 18815.918
460.39, 19011.294
460.59, 18860.563
460.79, 19175.951
461.00, 18634.877
461.20, 19325.043
461.41, 19493.386
461.61, 19352.895
461.81, 19207.899
462.02, 19413.515
462.22, 20275.300
462.43, 19968.924
462.63, 19482.736
462.83, 20252.773
463.04, 20204.031
463.24, 20453.883
463.45, 20480.097
463.65, 20429.307
463.85, 20855.285
464.06, 20376.470
464.26, 20923.687
464.46, 21349.665
464.67, 21586.410
464.87, 21325.499
465.08, 21085.886
465.28, 22103.317
465.48, 22042.288
465.69, 21995.594
465.89, 21846.092
466.09, 23186.283
466.30, 22964.693
466.50, 22614.900
466.71, 23354.626
466.91, 23719.574
467.11, 24359.769
467.32, 23883.412
467.52, 23998.507
467.72, 24582.998
467.93, 24029.637
468.13, 24871.352
468.33, 24133.673
468.54, 25416.521
468.74, 24912.311
468.94, 24898.385
469.15, 24512.138
469.35, 24619.861
469.55, 24908.215
469.76, 24453.156
469.96, 24383.935
470.17, 24093.533
470.37, 24854.558
470.57, 24449.061
470.78, 24442.097
470.98, 25035.189
471.18, 24907.806
471.39, 24542.858
471.59, 24804.178
471.79, 24966.377
471.99, 24719.392
472.20, 24946.717
472.40, 24825.477
472.60, 24528.931
472.81, 25114.650
473.01, 25331.735
473.21, 25006.108
473.42, 25310.027
473.62, 25346.890
473.82, 25421.436
474.03, 24904.529
474.23, 25295.691
474.43, 25090.075
474.64, 24227.470
474.84, 24694.817
475.04, 24734.138
475.25, 24403.596
475.45, 24415.883
475.65, 23896.928
475.85, 24091.076
476.06, 24304.474
476.26, 23912.493
476.46, 23950.175
476.67, 23982.943
476.87, 24144.732
477.07, 24043.563
477.28, 23787.157
477.48, 24366.323
477.68, 24275.393
477.88, 23934.611
478.09, 24295.053
478.29, 24526.474
478.49, 25111.374
478.70, 24422.437
478.90, 24779.193
479.10, 25228.927
479.30, 25656.133
479.51, 25055.669
479.71, 25229.337
479.91, 26236.937
480.11, 26255.369
480.32, 26328.686
480.52, 26499.487
480.72, 26369.646
480.93, 26936.523
481.13, 26601.476
481.33, 27126.984
481.53, 27449.335
481.74, 27744.652
481.94, 27730.726
482.14, 27160.162
482.34, 27838.858
482.55, 28016.622
482.75, 27581.224
482.95, 27360.043
483.15, 27994.504
483.36, 27397.726
483.56, 28297.194
483.76, 27385.029
483.96, 27596.789
484.17, 27675.021
484.37, 27174.497
484.57, 27326.866
484.77, 27542.313
484.98, 27446.468
485.18, 26979.531
485.38, 26884.915
485.58, 27537.807
485.79, 26947.992
485.99, 26599.837
486.19, 26727.631
486.39, 27425.988
486.59, 26592.465
486.80, 26599.428
487.00, 26274.210
487.20, 26895.974
487.40, 26598.609
487.61, 26473.682
487.81, 26155.838
488.01, 26504.812
488.21, 26779.649
488.41, 26533.074
488.62, 26645.712
488.82, 26331.553
489.02, 26918.911
489.22, 26665.782
489.43, 26906.213
489.63, 27400.184
489.83, 27219.143
490.03, 27181.460
490.23, 27040.560
490.44, 27598.017
490.64, 27623.003
490.84, 27934.294
491.04, 27900.297
491.24, 28193.567
491.45, 28544.998
491.65, 28213.227
491.85, 28138.681
492.05, 29054.123
492.25, 28595.378
492.45, 28389.352
492.66, 28162.847
492.86, 28505.677
493.06, 28649.444
493.26, 28382.389
493.46, 28271.799
493.67, 28995.551
493.87, 27996.142
494.07, 27957.641
494.27, 27777.419
494.47, 27799.947
494.67, 27836.810
494.88, 27298.604
495.08, 27336.287
495.28, 27547.637
495.48, 27184.328
495.68, 26863.616
495.89, 26684.214
496.09, 26846.003
496.29, 26868.121
496.49, 26781.697
496.69, 26401.594
496.89, 26121.022
497.09, 26597.789
497.30, 26226.697
497.50, 26044.019
497.70, 26349.576
497.90, 26687.900
498.10, 25880.591
498.30, 26327.867
498.51, 25766.724
498.71, 25747.063
498.91, 25658.181
499.11, 25620.908
499.31, 25831.030
499.51, 26001.830
499.71, 25486.152
499.92, 25304.702
500.12, 25546.772
500.32, 25537.761
500.52, 25744.196
500.72, 25135.540
500.92, 25613.126
501.12, 25767.133
501.32, 25009.794
501.53, 25386.621
501.73, 25677.023
501.93, 25648.761
502.13, 25060.994
502.33, 25084.340
502.53, 25407.510
502.73, 25307.979
502.93, 25054.850
503.14, 25238.757
503.34, 25251.045
503.54, 25114.650
503.74, 25107.687
503.94, 24775.097
504.14, 25352.215
504.34, 24924.189
504.54, 24853.330
504.74, 24673.927
504.95, 24877.496
505.15, 25308.388
505.35, 24349.529
505.55, 24685.396
505.75, 24575.215
505.95, 24802.540
506.15, 24335.193
506.35, 24458.072
506.55, 24414.245
506.75, 24799.673
506.95, 24267.611
507.16, 24159.068
507.36, 24539.990
507.56, 24613.717
507.76, 24428.990
507.96, 24269.658
508.16, 24281.946
508.36, 24407.282
508.56, 24143.913
508.76, 24374.924
508.96, 24336.832
509.16, 24719.802
509.36, 24150.876
509.57, 24281.946
509.77, 24368.780
509.97, 24245.902
510.17, 24293.415
510.37, 24521.559
510.57, 24212.315
510.77, 24166.031
510.97, 24404.824
511.17, 24056.670
511.37, 24781.651
511.57, 24530.160
511.77, 24138.588
511.97, 24202.076
512.17, 24571.939
512.37, 24764.857
512.57, 24464.216
512.78, 24202.485
512.98, 24517.872
513.18, 24376.972
513.38, 24153.743
513.58, 24300.378
513.78, 24710.791
513.98, 24562.108
514.18, 24555.555
514.38, 24333.555
514.58, 24196.341
514.78, 24537.942
514.98, 24524.016
515.18, 24510.090
515.38, 24675.566
515.58, 24640.341
515.78, 24329.050
515.98, 24503.536
516.18, 24916.817
516.38, 25085.979
516.58, 24742.330
516.78, 24445.784
516.98, 24689.082
517.18, 24908.215
517.38, 24709.562
517.58, 25037.237
517.78, 24864.798
517.98, 25337.469
518.18, 24888.145
518.38, 25145.780
518.58, 25552.916
518.78, 25050.344
518.98, 25227.698
519.18, 24932.381
519.38, 25275.621
519.58, 25366.551
519.78, 25105.230
519.98, 25281.355
520.18, 25459.528
520.38, 25494.344
520.58, 25505.403
520.78, 25299.377
520.98, 25713.886
521.18, 25533.665
521.38, 25517.691
521.58, 25363.683
521.78, 25773.687
521.98, 25601.248
522.18, 25437.410
522.38, 25775.735
522.58, 25214.182
522.78, 25647.941
522.98, 25550.458
523.18, 25388.669
523.38, 25838.403
523.58, 25658.591
523.78, 25268.248
523.98, 25559.469
524.18, 25834.716
524.38, 25829.391
524.58, 25669.240
524.78, 25596.742
524.98, 26204.170
525.18, 25834.716
525.38, 25751.159
525.58, 25860.111
525.78, 26059.174
525.98, 25892.469
526.18, 25737.233
526.38, 25487.790
526.58, 25829.801
526.78, 25622.547
526.98, 25702.008
527.17, 25495.573
527.37, 25577.901
527.57, 25626.233
527.77, 25362.045
527.97, 25633.606
528.17, 25466.082
528.37, 25634.015
528.57, 25466.901
528.77, 25314.532
528.97, 25646.713
529.17, 25530.388
529.37, 25384.573
529.57, 25155.610
529.77, 25160.934
529.97, 25605.344
530.17, 25187.148
530.36, 25015.529
530.56, 25126.529
530.76, 24910.263
530.96, 24853.739
531.16, 24827.525
531.36, 25250.636
531.56, 25254.731
531.76, 24421.618
531.96, 24663.688
532.16, 25043.381
532.36, 24808.274
532.56, 24752.979
532.76, 24779.193
532.95, 24832.031
533.15, 24959.005
533.35, 24789.433
533.55, 24599.791
533.75, 25305.931
533.95, 24764.038
534.15, 24833.669
534.35, 24575.625
534.55, 25020.853
534.75, 24732.499
534.94, 24474.865
535.14, 24383.935
535.34, 24594.466
535.54, 24492.068
535.74, 24687.444
535.94, 24336.832
536.14, 24469.131
536.34, 24723.898
536.54, 24389.669
536.73, 24079.607
536.93, 24433.086
537.13, 24534.666
537.33, 24195.522
537.53, 23818.286
537.73, 23904.710
537.93, 23866.618
538.13, 24101.315
538.32, 23739.235
538.52, 23740.054
538.72, 23772.002
538.92, 23559.013
539.12, 23551.231
539.32, 23930.515
539.52, 23752.342
539.72, 23685.987
539.91, 23313.667
540.11, 23491.430
540.31, 23560.242
540.51, 23301.788
540.71, 23562.700
540.91, 23901.843
541.11, 23472.179
541.30, 23155.973
541.50, 23028.999
541.70, 23115.014
541.90, 23220.279
542.10, 23062.176
542.30, 22951.176
542.49, 23406.644
542.69, 23164.575
542.89, 22884.003
543.09, 23191.608
543.29, 23529.523
543.49, 23557.785
543.68, 23067.501
543.88, 22975.342
544.08, 23219.050
544.28, 23169.899
544.48, 23203.076
544.68, 22862.704
544.87, 23261.239
545.07, 23002.785
545.27, 22871.305
545.47, 22938.069
545.67, 22920.457
545.87, 22952.405
546.06, 22846.320
546.26, 22680.025
546.46, 22930.696
546.66, 22998.689
546.86, 22985.172
547.05, 22816.010
547.25, 22884.003
547.45, 23333.327
547.65, 22596.468
547.85, 22180.321
548.04, 23040.058
548.24, 22696.409
548.44, 22367.096
548.64, 22454.749
548.84, 22872.125
549.03, 22224.147
549.23, 22383.479
549.43, 22236.845
549.63, 22580.084
549.83, 22525.608
550.02, 22354.398
550.22, 22285.586
550.42, 22465.398
550.62, 22561.243
550.82, 22023.037
551.01, 22086.524
551.21, 22440.822
551.41, 22781.604
551.61, 21905.074
551.80, 22402.730
552.00, 22246.265
552.20, 22427.306
552.40, 21971.018
552.60, 22371.601
552.79, 22380.202
552.99, 22313.848
553.19, 22204.487
553.39, 21913.266
553.58, 22327.774
553.78, 21829.708
553.98, 22004.195
554.18, 21976.343
554.37, 21703.963
554.57, 21838.310
554.77, 22002.557
554.97, 21904.664
555.16, 22240.531
555.36, 22394.129
555.56, 21698.229
555.76, 21619.177
555.95, 22324.088
556.15, 21955.044
556.35, 21749.019
556.55, 21559.786
556.74, 21617.949
556.94, 21860.018
557.14, 21610.166
557.34, 21545.450
557.53, 22026.314
557.73, 21714.613
557.93, 21575.351
558.13, 21349.665
558.32, 21568.388
558.52, 21792.026
558.72, 21298.875
558.92, 21643.753
559.11, 21854.284
559.31, 21724.443
559.51, 21674.882
559.70, 21508.997
559.90, 21735.502
560.10, 21501.214
560.30, 21445.510
560.49, 21432.403
560.69, 21482.783
560.89, 21763.354
561.08, 21239.894
561.28, 21139.953
561.48, 21479.506
561.68, 21455.749
561.87, 21120.292
562.07, 21157.565
562.27, 21217.775
562.46, 21233.750
562.66, 21234.159
562.86, 20824.565
563.05, 21269.384
563.25, 20882.728
563.45, 20713.975
563.65, 20872.898
563.84, 21273.890
564.04, 20858.562
564.24, 20750.019
564.43, 20676.702
564.63, 21058.853
564.83, 20835.215
565.02, 20632.056
565.22, 20639.429
565.42, 20623.864
565.61, 20832.348
565.81, 20620.178
566.01, 20659.090
566.20, 20838.492
566.40, 20532.525
566.60, 20584.134
566.79, 20321.584
566.99, 21099.812
567.19, 20788.112
567.38, 20534.983
567.58, 20339.197
567.78, 20719.300
567.97, 20571.846
568.17, 20392.854
568.37, 20454.702
568.56, 21142.410
568.76, 20606.252
568.96, 20467.400
569.15, 20573.075
569.35, 21936.612
569.55, 21073.189
569.74, 20445.691
569.94, 20381.385
570.14, 20827.023
570.33, 20517.780
570.53, 20213.452
570.73, 20315.850
570.92, 20379.337
571.12, 20422.344
571.31, 19863.658
571.51, 20029.954
571.71, 20450.197
571.90, 20479.278
572.10, 20045.109
572.30, 20063.131
572.49, 20631.647
572.69, 20449.787
572.88, 20150.784
573.08, 19695.315
573.28, 20401.865
573.47, 20039.374
573.67, 19617.083
573.87, 19666.644
574.06, 19922.230
574.26, 20020.123
574.45, 19730.541
574.65, 19458.570
574.85, 20035.278
575.04, 19780.921
575.24, 19747.334
575.44, 19475.364
575.63, 20017.256
575.83, 19599.471
576.02, 19490.109
576.22, 19498.301
576.42, 19774.367
576.61, 19849.732
576.81, 19358.220
577.00, 19540.489
577.20, 19755.116
577.40, 19902.980
577.59, 19390.987
577.79, 19440.139
577.98, 19782.969
578.18, 19602.747
578.37, 19551.548
578.57, 19264.423
578.77, 19386.072
578.96, 19376.242
579.16, 19353.714
579.35, 18986.309
579.55, 19426.622
579.75, 19153.013
579.94, 19277.530
580.14, 19120.655
580.33, 19756.345
580.53, 19365.592
580.72, 19140.316
580.92, 19454.474
581.12, 19148.917
581.31, 19390.987
581.51, 19338.559
581.70, 19281.216
581.90, 19811.640
582.09, 19171.035
582.29, 18862.202
582.48, 19091.984
582.68, 19443.415
582.88, 19470.858
583.07, 19052.253
583.27, 18882.681
583.46, 19371.327
583.66, 19481.508
583.85, 19276.711
584.05, 19066.179
584.24, 19825.566
584.44, 19528.201
584.63, 18979.346
584.83, 19050.205
585.03, 19529.840
585.22, 19143.593
585.42, 18800.763
585.61, 18947.397
585.81, 19294.323
586.00, 19092.803
586.20, 18842.132
586.39, 18815.508
586.59, 19055.120
586.78, 18940.434
586.98, 18899.065
587.17, 18817.966
587.37, 19060.855
587.56, 19308.249
587.76, 18662.320
587.95, 18808.955
588.15, 18815.508
588.34, 19080.925
588.54, 18551.320
588.74, 18561.560
588.93, 18764.718
589.13, 18867.936
589.32, 18534.117
589.52, 18212.996
589.71, 19082.154
589.91, 18495.206
590.10, 18234.704
590.30, 18396.494
590.49, 18551.320
590.69, 18534.117
590.88, 18267.472
591.08, 18165.892
591.27, 18537.394
591.47, 18226.922
591.66, 18031.546
591.85, 18216.682
592.05, 18564.427
592.24, 18557.464
592.44, 18133.944
592.63, 17795.210
592.83, 18364.955
593.02, 18255.593
593.22, 17891.874
593.41, 17752.612
593.61, 18178.590
593.80, 18552.549
594.00, 17855.011
594.19, 17807.907
594.39, 17939.797
594.58, 17871.804
594.78, 17619.904
594.97, 17739.505
595.17, 17936.930
595.36, 17950.446
595.56, 17549.044
595.75, 17517.915
595.94, 17972.564
596.14, 17795.620
596.33, 17472.860
596.53, 17213.177
596.72, 17764.491
596.92, 17651.852
597.11, 17332.779
597.31, 17643.660
597.50, 17744.011
597.69, 17830.435
597.89, 17370.461
598.08, 16971.107
598.28, 17879.996
598.47, 17517.096
598.67, 17357.764
598.86, 17151.738
599.06, 17553.140
599.25, 17156.653
599.44, 17023.126
599.64, 17086.203
599.83, 17271.749
600.03, 17173.856
600.22, 16914.993
600.42, 16862.565
600.61, 16962.916
600.80, 16847.001
601.00, 16779.827
601.19, 16547.178
601.39, 17016.982
601.58, 16694.222
601.78, 16592.643
601.97, 16589.776
602.16, 16798.668
602.36, 16612.303
602.55, 16677.019
602.75, 16259.233
602.94, 16718.388
603.13, 16786.790
603.33, 16224.008
603.52, 16132.669
603.72, 16745.831
603.91, 16254.728
604.10, 16180.182
604.30, 16111.780
604.49, 16424.709
604.69, 16373.920
604.88, 15925.824
605.07, 16035.186
605.27, 16156.835
605.46, 16063.448
605.66, 16080.241
605.85, 15770.179
606.04, 16368.595
606.24, 16353.850
606.43, 15758.300
606.62, 15840.219
606.82, 16050.341
607.01, 16086.795
607.21, 15688.669
607.40, 15839.810
607.59, 15935.654
607.79, 15743.555
607.98, 15698.909
608.17, 15465.441
608.37, 15897.972
608.56, 16337.466
608.76, 15430.216
608.95, 15469.946
609.14, 16070.411
609.34, 15846.363
609.53, 15535.481
609.72, 15347.887
609.92, 15719.389
610.11, 15806.632
610.30, 15405.231
610.50, 15399.087
610.69, 15371.234
610.88, 15769.359
611.08, 15318.806
611.27, 15213.131
611.46, 15739.869
611.66, 15480.596
611.85, 15203.301
612.04, 15417.109
612.24, 15712.016
612.43, 15516.640
612.62, 15059.943
612.82, 15079.194
613.01, 15490.836
613.20, 15596.101
613.40, 15271.293
613.59, 14989.493
613.78, 15629.688
613.98, 15039.054
614.17, 15186.507
614.36, 15071.002
614.56, 16230.562
614.75, 15237.297
614.94, 15118.105
615.14, 15130.393
615.33, 15716.112
615.52, 15630.098
615.72, 15245.079
615.91, 15206.987
616.10, 15627.640
616.30, 15653.854
616.49, 15293.411
616.68, 15333.961
616.88, 15859.060
617.07, 15968.832
617.26, 15370.415
617.45, 15370.825
617.65, 16187.964
617.84, 15492.064
618.03, 15469.127
618.23, 15563.743
618.42, 15825.883
618.61, 15689.489
618.80, 15596.511
619.00, 15647.300
619.19, 16171.171
619.38, 16123.658
619.58, 15738.230
619.77, 15727.171
619.96, 16155.197
620.15, 15981.529
620.35, 15836.533
620.54, 15679.658
620.73, 16020.850
620.93, 16233.429
621.12, 15741.097
621.31, 15908.212
621.50, 16174.038
621.70, 16713.883
621.89, 15890.190
622.08, 15754.204
622.27, 16429.215
622.47, 16324.768
622.66, 15760.348
622.85, 15866.433
623.04, 16119.972
623.24, 15950.809
623.43, 16081.879
623.62, 15839.810
623.81, 16168.304
624.01, 16129.802
624.20, 15756.662
624.39, 15990.950
624.58, 16026.994
624.78, 16198.204
624.97, 15682.935
625.16, 15661.636
625.35, 15864.795
625.55, 16175.676
625.74, 15639.928
625.93, 15675.972
626.12, 15798.031
626.32, 15582.585
626.51, 15444.961
626.70, 15390.895
626.89, 15584.223
627.09, 15744.374
627.28, 15340.105
627.47, 15403.183
627.66, 15853.326
627.85, 15573.164
628.05, 15265.149
628.24, 15215.998
628.43, 15745.193
628.62, 15697.271
628.82, 15283.991
629.01, 15231.972
629.20, 15504.762
629.39, 15477.729
629.58, 14935.426
629.78, 14994.408
629.97, 15319.625
630.16, 15066.087
630.35, 14942.799
630.54, 14900.611
630.74, 15070.592
630.93, 15022.670
631.12, 14855.556
631.31, 14634.785
631.50, 15064.039
631.70, 15194.699
631.89, 14595.054
632.08, 14715.065
632.27, 14604.884
632.46, 15048.884
632.65, 14577.442
632.85, 14342.335
633.04, 14710.969
633.23, 14844.906
633.42, 14341.925
633.61, 14345.611
633.81, 14615.124
634.00, 14452.925
634.19, 14221.914
634.38, 14217.818
634.57, 14227.648
634.76, 14282.124
634.96, 13992.951
635.15, 14016.298
635.34, 14427.940
635.53, 14389.848
635.72, 14035.549
635.91, 13890.143
636.11, 14326.770
636.30, 14317.759
636.49, 13945.848
636.68, 13690.671
636.87, 13939.704
637.06, 14482.416
637.26, 13718.523
637.45, 13745.557
637.64, 14009.745
637.83, 14085.519
638.02, 13663.228
638.21, 13603.018
638.40, 14299.737
638.60, 14190.785
638.79, 13632.509
638.98, 13382.247
639.17, 13781.191
639.36, 13476.863
639.55, 13407.642
639.74, 13326.542
639.93, 13551.409
640.13, 13570.660
640.32, 13165.572
640.51, 13032.454
640.70, 13493.657
640.89, 13481.778
641.08, 13020.576
641.27, 12982.483
641.46, 13294.594
641.66, 13444.505
641.85, 12919.406
642.04, 12785.469
642.23, 13345.793
642.42, 13039.827
642.61, 12873.941
642.80, 12581.082
642.99, 12998.867
643.18, 13269.609
643.38, 12802.672
643.57, 12746.557
643.76, 12851.823
643.95, 13167.620
644.14, 12801.443
644.33, 12724.849
644.52, 13312.206
644.71, 12914.491
644.90, 12668.735
645.09, 12558.144
645.29, 12971.834
645.48, 12831.753
645.67, 12698.635
645.86, 12669.144
646.05, 13052.114
646.24, 13249.948
646.43, 12592.550
646.62, 12638.834
646.81, 12814.960
647.00, 12845.270
647.19, 12474.178
647.38, 12675.288
647.57, 12892.782
647.77, 12943.572
647.96, 12643.749
648.15, 12431.580
648.34, 13166.391
648.53, 13141.815
648.72, 12516.366
648.91, 12717.886
649.10, 13128.299
649.29, 12549.543
649.48, 12405.776
649.67, 12547.905
649.86, 13106.590
650.05, 12469.263
650.24, 12438.543
650.43, 12510.632
650.62, 12518.823
650.81, 12834.620
651.01, 12147.322
651.20, 12091.208
651.39, 12515.547
651.58, 12554.458
651.77, 11873.713
651.96, 12132.576
652.15, 12352.528
652.34, 12066.222
652.53, 12062.536
652.72, 11885.591
652.91, 12255.455
653.10, 12107.591
653.29, 11705.370
653.48, 11625.090
653.67, 12139.540
653.86, 12009.698
654.05, 11672.603
654.24, 11636.149
654.43, 11926.551
654.62, 11821.695
654.81, 11675.060
655.00, 11540.714
655.19, 11873.713
655.38, 11959.728
655.57, 11486.647
655.76, 11547.677
655.95, 11858.968
656.14, 11585.769
656.33, 11531.293
656.52, 11504.260
656.71, 11713.972
656.90, 11676.699
657.09, 11412.511
657.28, 11348.614
657.47, 11632.053
657.66, 11837.259
657.85, 11263.009
658.04, 11448.555
658.23, 11468.215
658.42, 11711.924
658.61, 11290.042
658.80, 11180.271
658.99, 11498.525
659.18, 11956.861
659.37, 11032.817
659.56, 11136.035
659.75, 11564.470
659.94, 11317.075
660.13, 10966.053
660.32, 11176.175
660.51, 11427.666
660.70, 11268.334
660.89, 11204.847
661.08, 10931.238
661.27, 11473.131
661.46, 11331.411
661.65, 10955.404
661.84, 11115.555
662.03, 11286.765
662.22, 11395.308
662.41, 10925.504
662.60, 10844.404
662.78, 11091.389
662.97, 11280.212
663.16, 10967.282
663.35, 10922.227
663.54, 11213.038
663.73, 11446.097
663.92, 10825.153
664.11, 10845.633
664.30, 11042.238
664.49, 11220.002
664.68, 10791.976
664.87, 10769.448
665.06, 11209.762
665.25, 11109.821
665.44, 10836.622
665.63, 10776.412
665.82, 11084.016
666.01, 11431.352
666.19, 10724.803
666.38, 10812.046
666.57, 11441.182
666.76, 10984.076
666.95, 10927.961
667.14, 10760.847
667.33, 11122.109
667.52, 11451.832
667.71, 10957.452
667.90, 10986.533
668.09, 11278.983
668.28, 10926.323
668.46, 10633.463
668.65, 10871.028
668.84, 11421.522
669.03, 10825.153
669.22, 10692.035
669.41, 10762.076
669.60, 11376.466
669.79, 10708.009
669.98, 10732.175
670.17, 10530.655
670.35, 10922.227
670.54, 10749.788
670.73, 10509.766
670.92, 10543.353
671.11, 10836.622
671.30, 10413.512
671.49, 10451.194
671.68, 10328.316
671.87, 10913.216
672.05, 10846.042
672.24, 10311.113
672.43, 10465.530
672.62, 10598.648
672.81, 10906.662
673.00, 10465.530
673.19, 10340.194
673.38, 10677.699
673.57, 10597.829
673.75, 10644.113
673.94, 10358.626
674.13, 10651.895
674.32, 10580.216
674.51, 10363.951
674.70, 10402.862
674.89, 10311.523
675.07, 10710.057
675.26, 10621.585
675.45, 10399.995
675.64, 10725.622
675.83, 10794.434
676.02, 10523.283
676.21, 10605.201
676.39, 10560.965
676.58, 10379.925
676.77, 10047.744
676.96, 10180.453
677.15, 10410.235
677.34, 10760.028
677.52, 10130.073
677.71, 10079.693
677.90, 10488.467
678.09, 10520.825
678.28, 10109.183
678.47, 10227.556
678.65, 10434.810
678.84, 10635.921
679.03, 10003.918
679.22, 10054.707
679.41, 10232.061
679.60, 10328.316
679.78, 10126.386
679.97, 10112.460
680.16, 10564.242
680.35, 10488.467
680.54, 10368.866
680.73, 10023.988
680.91, 10533.522
681.10, 10642.884
681.29, 10259.095
681.48, 10302.102
681.67, 10658.858
681.85, 10337.327
682.04, 10223.460
682.23, 10223.460
682.42, 10448.327
682.61, 10327.497
682.79, 10290.224
682.98, 10356.578
683.17, 10585.950
683.36, 10488.058
683.55, 10332.412
683.73, 10448.327
683.92, 10510.585
684.11, 10526.559
684.30, 10377.467
684.49, 10253.360
684.67, 10486.010
684.86, 10415.969
685.05, 10116.966
685.24, 10100.991
685.42, 10597.419
685.61, 10366.818
685.80, 10114.098
685.99, 10220.183
686.18, 10305.788
686.36, 10261.962
686.55, 10243.120
686.74, 10033.818
686.93, 10216.907
687.11, 10351.663
687.30, 9847.863
687.49, 9847.863
687.68, 10252.951
687.86, 10223.050
688.05, 9847.863
688.24, 9925.276
688.43, 10418.427
688.61, 10128.844
688.80, 9837.623
688.99, 9704.505
689.18, 10358.626
689.36, 10190.283
689.55, 9657.401
689.74, 9425.162
689.93, 10070.682
690.11, 9856.054
690.30, 9702.047
690.49, 9488.239
690.68, 10178.814
690.86, 9615.623
691.05, 9398.129
691.24, 9328.498
691.43, 9622.996
691.61, 9826.973
691.80, 9269.926
691.99, 9147.867
692.17, 9590.638
692.36, 9444.822
692.55, 9251.904
692.74, 8905.387
692.92, 9243.712
693.11, 9223.232
693.30, 9140.494
693.49, 8924.229
693.67, 9080.284
693.86, 9273.612
694.05, 8947.166
694.23, 8886.136
694.42, 9378.059
694.61, 8877.945
694.79, 8817.325
694.98, 8735.406
695.17, 9226.509
695.36, 8672.328
695.54, 8687.483
695.73, 8542.897
695.92, 9000.823
696.10, 9027.037
696.29, 8453.605
696.48, 8665.365
696.66, 9258.867
696.85, 8557.642
697.04, 8375.373
697.22, 8429.030
697.41, 8930.782
697.60, 8517.092
697.79, 8293.454
697.97, 8329.498
698.16, 8834.528
698.35, 8574.845
698.53, 8335.233
698.72, 8237.750
698.91, 8852.140
699.09, 8497.022
699.28, 8267.650
699.47, 8278.709
699.65, 8246.761
699.84, 8641.199
700.03, 8172.624
700.21, 8116.100
700.40, 8271.746
700.59, 8280.347
700.77, 8058.347
700.96, 8032.953
701.15, 8624.816
701.33, 8482.277
701.52, 7867.886
701.70, 8018.617
701.89, 8537.163
702.08, 8079.237
702.26, 7816.687
702.45, 7781.052
702.64, 7945.709
702.82, 8222.185
703.01, 7915.399
703.20, 7798.665
703.38, 8524.465
703.57, 7998.137
703.76, 7934.650
703.94, 7901.473
704.13, 8097.259
704.31, 7840.034
704.50, 7966.189
704.69, 8009.196
704.87, 8104.222
705.06, 8099.307
705.25, 7848.226
705.43, 7767.126
705.62, 8149.687
705.80, 8217.679
705.99, 7892.872
706.18, 7851.503
706.36, 8083.333
706.55, 8085.381
706.73, 7921.543
706.92, 7840.034
707.11, 8338.100
707.29, 8509.720
707.48, 8047.698
707.66, 8044.012
707.85, 8075.141
708.04, 8202.934
708.22, 7935.469
708.41, 8014.111
708.59, 8422.067
708.78, 8199.657
708.97, 7686.846
709.15, 7953.491
709.34, 8275.432
709.52, 8203.753
709.71, 7955.130
709.90, 7909.665
710.08, 8537.982
710.27, 8021.484
710.45, 8023.122
710.64, 7976.838
710.82, 8425.343
711.01, 8218.908
711.20, 8066.539
711.38, 7935.060
711.57, 8322.126
711.75, 8160.336
711.94, 8192.694
712.12, 8089.886
712.31, 8310.657
712.50, 8497.842
712.68, 8012.883
712.87, 8218.908
713.05, 8385.613
713.24, 8158.288
713.42, 8011.244
713.61, 7959.635
713.79, 8521.598
713.98, 8150.506
714.17, 7937.108
714.35, 8031.724
714.54, 8205.392
714.72, 8109.137
714.91, 7966.598
715.09, 7917.038
715.28, 7957.587
715.46, 8462.616
715.65, 7733.949
715.83, 7729.444
716.02, 8259.048
716.21, 8039.097
716.39, 7792.112
716.58, 7509.492
716.76, 7796.207
716.95, 7993.632
717.13, 7424.296
717.32, 7367.363
717.50, 8032.133
717.69, 7807.676
717.87, 7360.809
718.06, 7301.009
718.24, 7460.341
718.43, 7618.034
718.61, 7317.392
718.80, 7205.573
718.98, 7529.152
719.17, 7373.097
719.35, 7301.009
719.54, 7087.610
719.72, 7287.082
719.91, 7400.130
720.09, 6973.743
720.28, 7046.241
720.46, 7258.001
720.65, 7551.680
720.83, 6951.625
721.02, 7026.581
721.20, 7391.119
721.39, 7164.614
721.57, 6835.300
721.76, 6977.839
721.94, 7136.352
722.13, 7063.444
722.31, 6953.264
722.50, 6942.614
722.68, 6965.551
722.87, 7332.957
723.05, 6802.533
723.24, 7361.628
723.42, 6994.223
723.61, 7337.053
723.79, 6672.282
723.98, 6669.415
724.16, 7245.304
724.34, 6774.681
724.53, 6786.149
724.71, 6869.297
724.90, 6887.728
725.08, 7073.274
725.27, 6672.692
725.45, 6622.312
725.64, 6802.533
725.82, 7207.212
726.01, 6454.788
726.19, 6506.806
726.38, 6822.193
726.56, 6662.452
726.74, 6709.146
726.93, 6500.253
727.11, 7362.857
727.30, 6871.754
727.48, 6610.434
727.67, 6693.581
727.85, 7026.581
728.04, 7171.167
728.22, 6743.552
728.40, 6788.607
728.59, 7019.208
728.77, 7030.677
728.96, 6669.415
729.14, 6738.636
729.33, 7547.584
729.51, 7181.407
729.69, 6981.935
729.88, 6832.433
730.06, 7196.972
730.25, 7215.813
730.43, 6854.551
730.61, 6988.489
730.80, 7234.245
730.98, 7537.344
731.17, 7058.119
731.35, 7005.282
731.54, 7248.581
731.72, 7526.285
731.90, 6989.308
732.09, 7036.821
732.27, 7575.846
732.46, 7633.189
732.64, 7039.278
732.82, 7029.858
733.01, 7441.909
733.19, 7423.887
733.38, 6870.935
733.56, 7154.374
733.74, 7425.525
733.93, 7410.780
734.11, 6986.441
734.29, 6905.341
734.48, 7328.861
734.66, 7173.215
734.85, 6738.636
735.03, 6748.876
735.21, 7070.817
735.40, 7422.658
735.58, 6752.972
735.77, 6732.083
735.95, 7133.485
736.13, 6934.422
736.32, 6583.810
736.50, 6714.470
736.68, 6739.046
736.87, 7137.581
737.05, 6560.054
737.23, 6675.559
737.42, 6938.109
737.60, 6884.452
737.79, 6582.172
737.97, 6458.884
738.15, 6954.492
738.34, 6821.374
738.52, 6554.319
738.70, 6586.677
738.89, 7009.378
739.07, 6741.913
739.25, 6598.555
739.44, 6551.862
739.62, 7036.001
739.80, 6650.574
739.99, 6333.548
740.17, 6525.238
740.35, 7122.426
740.54, 6945.072
740.72, 6425.707
740.90, 6346.655
741.09, 6526.057
741.27, 6710.374
741.45, 6461.341
741.64, 6326.995
741.82, 6701.773
742.00, 6601.422
742.19, 6367.954
742.37, 6341.740
742.55, 6500.662
742.74, 6552.271
742.92, 6264.736
743.10, 6377.784
743.29, 6709.146
743.47, 6755.430
743.65, 6174.626
743.83, 6329.043
744.02, 6475.677
744.20, 6415.876
744.38, 6073.866
744.57, 6145.954
744.75, 6272.109
744.93, 6357.305
745.12, 6148.821
745.30, 6108.272
745.48, 6923.773
745.66, 6197.153
745.85, 6048.471
746.03, 6031.268
746.21, 6521.961
746.40, 6346.246
746.58, 6074.275
746.76, 5995.224
746.94, 6578.895
747.13, 6486.736
747.31, 5992.766
747.49, 6120.969
747.68, 6363.448
747.86, 6480.592
748.04, 5964.914
748.22, 5928.460
748.41, 6415.057
748.59, 6397.035
748.77, 5797.800
748.95, 6006.692
749.14, 6071.408
749.32, 6286.445
749.50, 5853.504
749.68, 5729.807
749.87, 6072.637
750.05, 6201.659
750.23, 5789.608
750.42, 5876.032
750.60, 6055.434
750.78, 6080.829
750.96, 5826.062
751.15, 5934.604
751.33, 5806.401
751.51, 6279.072
751.69, 5839.578
751.87, 5754.383
752.06, 5898.150
752.24, 6042.737
752.42, 5716.290
752.60, 5595.051
752.79, 6265.146
752.97, 6064.445
753.15, 5675.741
753.33, 5694.991
753.52, 5903.884
753.70, 5921.906
753.88, 5586.859
754.06, 5679.837
754.24, 5826.061
754.43, 6169.301
754.61, 5574.571
754.79, 5539.346
754.97, 5833.025
755.16, 6043.556
755.34, 5676.560
755.52, 5718.748
755.70, 5939.519
755.88, 5766.261
756.07, 5626.999
756.25, 5638.468
756.43, 6061.578
756.61, 5817.050
756.79, 5840.397
756.98, 5626.589
757.16, 6057.072
757.34, 5801.076
757.52, 5723.663
757.70, 5786.331
757.89, 6271.700
758.07, 6536.707
758.25, 5853.504
758.43, 5746.191
758.61, 6178.722
758.80, 6242.618
758.98, 5915.763
759.16, 5861.287
759.34, 6417.515
759.52, 6215.176
759.70, 5966.143
759.89, 5969.419
760.07, 6242.209
760.25, 6282.349
760.43, 5936.242
760.61, 6122.198
760.79, 6397.445
760.98, 6473.220
761.16, 6323.308
761.34, 6455.198
761.52, 6544.079
761.70, 6924.182
761.88, 6827.928
762.07, 6928.688
762.25, 7609.433
762.43, 7454.197
762.61, 7328.451
762.79, 7381.699
762.97, 7799.894
763.15, 7811.362
763.34, 7672.101
763.52, 7794.159
763.70, 8435.993
763.88, 8384.794
764.06, 8226.690
764.24, 7997.318
764.42, 8495.384
764.61, 8381.926
764.79, 8101.355
764.97, 8228.329
765.15, 8197.609
765.33, 8568.292
765.51, 8030.085
765.69, 8137.809
765.87, 8285.262
766.06, 8171.395
766.24, 7560.691
766.42, 7438.632
766.60, 7632.780
766.78, 7748.285
766.96, 7182.226
767.14, 6941.795
767.32, 7274.795
767.50, 6802.943
767.69, 6635.828
767.87, 6619.854
768.05, 6938.109
768.23, 6471.581
768.41, 6389.662
768.59, 6073.047
768.77, 6387.205
768.95, 6254.087
769.13, 5920.268
769.32, 5873.984
769.50, 6269.652
769.68, 6198.792
769.86, 5839.578
770.04, 5737.589
770.22, 5769.538
770.40, 6023.486
770.58, 5539.755
770.76, 5542.623
770.94, 6045.604
771.12, 5600.375
771.30, 5511.494
771.49, 5616.759
771.67, 5837.530
771.85, 5804.353
772.03, 5524.600
772.21, 5477.907
772.39, 5641.744
772.57, 5862.106
772.75, 5250.992
772.93, 5390.254
773.11, 5791.656
773.29, 5664.682
773.47, 5273.520
773.65, 5337.007
773.83, 5735.951
774.01, 5353.390
774.19, 5239.114
774.38, 5284.169
774.56, 5652.803
774.74, 5503.711
774.92, 5058.073
775.10, 5053.158
775.28, 5146.955
775.46, 5518.866
775.64, 4873.346
775.82, 4854.096
776.00, 4938.472
776.18, 4981.479
776.36, 4791.428
776.54, 4966.324
776.72, 5043.328
776.90, 5065.036
777.08, 4762.756
777.26, 4818.461
777.44, 4946.254
777.62, 5100.261
777.80, 4694.354
777.98, 4708.280
778.16, 4834.025
778.34, 4998.682
778.52, 4719.339
778.70, 4613.254
778.88, 4824.195
779.06, 4704.184
779.24, 4604.243
779.42, 4658.310
779.60, 5056.435
779.78, 4920.450
779.96, 4412.553
780.14, 4586.221
780.32, 4856.553
780.50, 5018.343
780.68, 4497.749
780.86, 4548.539
781.04, 4816.413
781.22, 4707.051
781.40, 4682.885
781.58, 4447.369
781.76, 4795.114
781.94, 4946.664
782.12, 4538.299
782.30, 4695.992
782.48, 4802.487
782.66, 4766.442
782.84, 4508.808
783.02, 4513.723
783.20, 4869.250
783.38, 4858.191
783.56, 4271.244
783.74, 4307.697
783.92, 4515.362
784.10, 4664.454
784.28, 4408.048
784.46, 4382.244
784.64, 4691.896
784.82, 4611.206
785.00, 4243.391
785.18, 4247.487
785.36, 4828.291
785.54, 4345.790
785.72, 4344.561
785.90, 4335.140
786.08, 4434.672
786.26, 4603.834
786.43, 4434.672
786.61, 4459.657
786.79, 4980.660
786.97, 5011.380
787.15, 4417.878
787.33, 4394.122
787.51, 4564.922
787.69, 4946.254
787.87, 4478.908
788.05, 4416.649
788.23, 5260.003
788.41, 4678.380
788.59, 4641.516
788.77, 4580.897
788.95, 4799.620
789.13, 4783.645
789.30, 4504.302
789.48, 4364.221
789.66, 4821.328
789.84, 4768.900
790.02, 4467.029
790.20, 4270.424
790.38, 4811.498
790.56, 4631.277
790.74, 4331.454
790.92, 4495.291
791.10, 4885.634
791.28, 4904.885
791.45, 4555.502
791.63, 4258.137
791.81, 4986.394
791.99, 4681.247
792.17, 4256.089
792.35, 4247.487
792.53, 4211.033
792.71, 4656.671
792.89, 4099.214
793.07, 4354.801
793.24, 4433.443
793.42, 4793.885
793.60, 4079.144
793.78, 4152.871
793.96, 4374.871
794.14, 4424.841
794.32, 4116.008
794.50, 4139.354
794.67, 4412.963
794.85, 4321.624
795.03, 4132.801
795.21, 4148.366
795.39, 4401.904
795.57, 4503.483
795.75, 4163.520
795.93, 4190.963
796.10, 4721.797
796.28, 4335.140
796.46, 4009.104
796.64, 4122.561
796.82, 4631.277
797.00, 4570.247
797.18, 4118.056
797.35, 4093.890
797.53, 4408.458
797.71, 4487.509
797.89, 4283.531
798.07, 4104.539
798.25, 4399.446
798.43, 4617.760
798.60, 4122.971
798.78, 4131.982
798.96, 4776.682
799.14, 4180.723
799.32, 3958.724
799.50, 4118.056
799.67, 4311.793
799.85, 4305.240
800.03, 4043.510
800.21, 4013.200
800.39, 4335.959
800.57, 4352.343
800.74, 3996.816
800.92, 4017.296
801.10, 4204.070
801.28, 4020.163
801.46, 3839.122
801.64, 3891.960
801.81, 4462.524
801.99, 4100.033
802.17, 4005.417
802.35, 3959.133
802.53, 4123.790
802.70, 3689.620
802.88, 3799.392
803.06, 3729.761
803.24, 4133.620
803.42, 4281.074
803.59, 3794.886
803.77, 3661.359
803.95, 4459.657
804.13, 4215.129
804.31, 3815.366
804.48, 3828.882
804.66, 4217.587
804.84, 3875.986
805.02, 3863.288
805.20, 3862.469
805.37, 3972.240
805.55, 4066.037
805.73, 3763.347
805.91, 3859.602
806.08, 4147.956
806.26, 4012.790
806.44, 3679.381
806.62, 3698.632
806.80, 4072.181
806.97, 4011.561
807.15, 3755.975
807.33, 3898.923
807.51, 4206.118
807.68, 3690.440
807.86, 3786.694
808.04, 3685.115
808.22, 4010.742
808.39, 5334.139
808.57, 3752.698
808.75, 3758.023
808.93, 4039.414
809.10, 3887.454
809.28, 3716.654
809.46, 3711.329
809.64, 4246.668
809.81, 3863.698
809.99, 3791.609
810.17, 3608.111
810.35, 4443.683
810.52, 3973.469
810.70, 3762.938
810.88, 3721.569
811.06, 4086.107
811.23, 4224.960
811.41, 3678.561
811.59, 3484.414
811.77, 4133.620
811.94, 3823.148
812.12, 3798.163
812.30, 3725.665
812.47, 4048.834
812.65, 4165.159
812.83, 3755.565
813.01, 3716.654
813.18, 3856.325
813.36, 4120.923
813.54, 3701.908
813.71, 3764.167
813.89, 4456.380
814.07, 4149.594
814.25, 3928.004
814.42, 3806.764
814.60, 4412.553
814.78, 4198.336
814.95, 3597.462
815.13, 3900.152
815.31, 4013.609
815.49, 4332.273
815.66, 3776.454
815.84, 3909.982
816.02, 4311.793
816.19, 4139.764
816.37, 4033.679
816.55, 4012.790
816.72, 4489.557
816.90, 4127.886
817.08, 3861.240
817.25, 4032.860
817.43, 4507.989
817.61, 4290.904
817.78, 4191.373
817.96, 4226.188
818.14, 4314.661
818.31, 4643.155
818.49, 4333.911
818.67, 4250.764
818.84, 4569.837
819.02, 4602.605
819.20, 4485.461
819.37, 4724.664
819.55, 5033.088
819.73, 5384.519
819.90, 5134.258
820.08, 5572.933
820.26, 6017.751
820.43, 6379.013
820.61, 6339.692
820.79, 6521.142
820.96, 7167.481
821.14, 7290.359
821.32, 7473.448
821.49, 7649.163
821.67, 8305.332
821.85, 8608.841
822.02, 8727.624
822.20, 8785.786
822.37, 9441.136
822.55, 9137.627
822.73, 9410.826
822.90, 9471.855
823.08, 10181.272
823.26, 9875.715
823.43, 9873.257
823.61, 9941.250
823.78, 10217.726
823.96, 9937.154
824.14, 9881.859
824.31, 9736.043
824.49, 10204.209
824.67, 10088.294
824.84, 9394.852
825.02, 9263.372
825.19, 9485.372
825.37, 9698.361
825.55, 8824.697
825.72, 8582.218
825.90, 8574.026
826.07, 8563.786
826.25, 8421.248
826.43, 7957.587
826.60, 8075.960
826.78, 8207.440
826.95, 7757.296
827.13, 7551.270
827.31, 8091.115
827.48, 7819.964
827.66, 7344.426
827.83, 7399.721
828.01, 7445.595
828.19, 7356.304
828.36, 6995.042
828.54, 7167.481
828.71, 7011.835
828.89, 6946.300
829.06, 6503.530
829.24, 6755.020
829.42, 6560.054
829.59, 6623.950
829.77, 6016.523
829.94, 5812.135
830.12, 5946.072
830.29, 5660.586
830.47, 5303.829
830.65, 5106.815
830.82, 5692.124
831.00, 5253.449
831.17, 4841.398
831.35, 4856.144
831.52, 5090.022
831.70, 5153.918
831.87, 4663.225
832.05, 4679.609
832.23, 5124.427
832.40, 5086.335
832.58, 5004.826
832.75, 4888.092
832.93, 5196.106
833.10, 5201.431
833.28, 5146.545
833.45, 5103.538
833.63, 5411.143
833.80, 5129.343
833.98, 5162.110
834.15, 5248.125
834.33, 5497.158
834.51, 5362.811
834.68, 4985.575
834.86, 4991.309
835.03, 5341.103
835.21, 5371.003
835.38, 4983.527
835.56, 5028.992
835.73, 5303.420
835.91, 5412.781
836.08, 4784.465
836.26, 4857.372
836.43, 4958.952
836.61, 4974.926
836.78, 4432.214
836.96, 4281.893
837.13, 4915.125
837.31, 4597.690
837.48, 4212.672
837.66, 3932.510
837.83, 4326.948
838.01, 4371.184
838.18, 3713.377
838.36, 3656.034
838.53, 4118.875
838.71, 4426.480
838.88, 3664.226
839.06, 3707.233
839.23, 4156.557
839.41, 4157.786
839.58, 3681.019
839.76, 3567.152
839.93, 4284.760
840.11, 4228.646
840.28, 3617.942
840.46, 3712.558
840.63, 3878.443
840.81, 3976.746
840.98, 3502.846
841.15, 3593.366
841.33, 4161.063
841.50, 3855.506
841.68, 3593.776
841.85, 3607.702
842.03, 4209.805
842.20, 4127.476
842.38, 3368.499
842.55, 3335.732
842.73, 3847.314
842.90, 3728.941
843.08, 3370.547
843.25, 3422.156
843.42, 3633.506
843.60, 3759.661
843.77, 3126.429
843.95, 3066.219
844.12, 3280.027
844.30, 3657.263
844.47, 2971.603
844.64, 2988.806
844.82, 3821.100
844.99, 3414.374
845.17, 2976.108
845.34, 2784.009
845.52, 3382.016
845.69, 3462.296
845.87, 2907.706
846.04, 2821.282
846.21, 3267.329
846.39, 3316.890
846.56, 2876.167
846.74, 2789.743
846.91, 3193.193
847.08, 3257.909
847.26, 2713.149
847.43, 2820.872
847.61, 3175.171
847.78, 3468.030
847.95, 2802.440
848.13, 2755.747
848.30, 3189.097
848.48, 3130.115
848.65, 2840.533
848.83, 2765.577
849.00, 3132.163
849.17, 3262.005
849.35, 2750.422
849.52, 2668.913
849.69, 3346.791
849.87, 3076.868
850.04, 2716.016
850.22, 2625.906
850.39, 3121.104
850.56, 3366.451
850.74, 2650.481
850.91, 2677.924
851.09, 3042.872
851.26, 3188.687
851.43, 2568.972
851.61, 2780.322
851.78, 3012.972
851.95, 3141.584
852.13, 2655.396
852.30, 2605.835
852.48, 3613.436
852.65, 3167.798
852.82, 2663.998
853.00, 2646.795
853.17, 3297.230
853.34, 2869.204
853.52, 2682.429
853.69, 2549.721
853.86, 3310.337
854.04, 3175.580
854.21, 2703.728
854.38, 2611.979
854.56, 3027.307
854.73, 2969.964
854.90, 2737.315
855.08, 2651.300
855.25, 3190.326
855.42, 2847.086
855.60, 2731.581
855.77, 2719.293
855.95, 3203.842
856.12, 3248.898
856.29, 2540.710
856.46, 2754.518
856.64, 3055.979
856.81, 3164.112
856.98, 2720.931
857.16, 2697.994
857.33, 2918.355
857.50, 3231.695
857.68, 2596.005
857.85, 2677.514
858.02, 2969.145
858.20, 2985.938
858.37, 2696.765
858.54, 2588.632
858.72, 3616.303
858.89, 3308.698
859.06, 2616.894
859.24, 2620.171
859.41, 3168.617
859.58, 3217.768
859.75, 2664.817
859.93, 2665.636
860.10, 3183.363
860.27, 3234.971
860.45, 2616.075
860.62, 2668.913
860.79, 3107.588
860.97, 3169.436
861.14, 2644.747
861.31, 2669.322
861.48, 3107.178
861.66, 2868.795
861.83, 2566.514
862.00, 2548.902
862.17, 2890.503
862.35, 3202.204
862.52, 2583.308
862.69, 2664.407
862.87, 3164.112
863.04, 3162.883
863.21, 2505.485
863.38, 2658.263
863.56, 3128.477
863.73, 3017.068
863.90, 2597.644
864.07, 2784.828
864.25, 3354.163
864.42, 2956.038
864.59, 2546.854
864.76, 2586.585
864.94, 3283.304
865.11, 2987.986
865.28, 2532.109
865.45, 2611.979
865.63, 3096.119
865.80, 2957.267
865.97, 2634.917
866.14, 2613.208
866.32, 3207.119
866.49, 2972.012
866.66, 2765.577
866.83, 2611.160
867.01, 3058.027
867.18, 3089.566
867.35, 2505.895
867.52, 2591.500
867.70, 3320.577
867.87, 3492.196
868.04, 2587.813
868.21, 2646.385
868.38, 3177.219
868.56, 3397.580
868.73, 2655.806
868.90, 2594.776
869.07, 3108.407
869.24, 3301.326
869.42, 2688.983
869.59, 2859.784
869.76, 3408.639
869.93, 3036.728
870.11, 2827.835
870.28, 2643.108
870.45, 3485.643
870.62, 3248.898
870.79, 2729.533
870.97, 2824.968
871.14, 3339.827
871.31, 3308.698
871.48, 2764.758
871.65, 2913.440
871.82, 3519.639
872.00, 3248.898
872.17, 2716.016
872.34, 2777.865
872.51, 3111.684
872.68, 3302.145
872.86, 2906.477
873.03, 2713.968
873.20, 3229.237
873.37, 3672.418
873.54, 2658.263
873.71, 2745.917
873.89, 3567.562
874.06, 3314.433
874.23, 2734.857
874.40, 2797.525
874.57, 3556.093
874.74, 3194.831
874.92, 2840.123
875.09, 2661.131
875.26, 3490.968
875.43, 3353.344
875.60, 2797.525
875.77, 2855.278
875.95, 3130.115
876.12, 3323.853
876.29, 2750.422
876.46, 2921.223
876.63, 3238.248
876.80, 3402.905
876.97, 3075.639
877.15, 2768.444
877.32, 3565.104
877.49, 3261.185
877.66, 3193.193
877.83, 3016.658
878.00, 3323.034
878.17, 3877.624
878.34, 2990.444
878.52, 3132.163
878.69, 3583.126
878.86, 3360.307
879.03, 3078.097
879.20, 3121.924
879.37, 3772.768
879.54, 4205.709
879.71, 3331.636
879.89, 3523.735
880.06, 4336.369
880.23, 4119.284
880.40, 3799.801
880.57, 3915.307
880.74, 4337.598
880.91, 4748.011
881.08, 4076.687
881.25, 4326.129
881.42, 4882.358
881.60, 4671.007
881.77, 4354.801
881.94, 4318.347
882.11, 4755.383
882.28, 4987.214
882.45, 4490.376
882.62, 4617.760
882.79, 5331.272
882.96, 5133.438
883.13, 4517.819
883.30, 4794.704
883.48, 5226.007
883.65, 5021.210
883.82, 4449.826
883.99, 4513.723
884.16, 5215.767
884.33, 4795.933
884.50, 4416.240
884.67, 4476.860
884.84, 4772.996
885.01, 4612.845
885.18, 4231.513
885.35, 4137.306
885.52, 4165.568
885.69, 4443.273
885.87, 3831.750
886.04, 3816.185
886.21, 4319.576
886.38, 4339.646
886.55, 3604.015
886.72, 3570.019
886.89, 4118.056
887.06, 3857.964
887.23, 3446.731
887.40, 3478.270
887.57, 3764.986
887.74, 3868.613
887.91, 3090.385
888.08, 3174.761
888.25, 3745.735
888.42, 3989.034
888.59, 3114.141
888.76, 3082.193
888.93, 3515.134
889.10, 3284.942
889.27, 3024.850
889.44, 3042.462
889.61, 3360.717
889.78, 3341.875
889.95, 3042.462
890.12, 3090.385
890.29, 3529.469
890.46, 3291.086
890.63, 2821.691
890.80, 2867.566
890.97, 3248.078
891.15, 3386.931
891.32, 2863.470
891.49, 2899.105
891.66, 3610.569
891.83, 3324.672
892.00, 2865.108
892.17, 2953.171
892.34, 3326.311
892.51, 3425.433
892.68, 2861.422
892.84, 2786.057
893.01, 3152.643
893.18, 3336.141
893.35, 2895.009
893.52, 2820.053
893.69, 3473.765
##END=
##END=   $$end of all blocks
