##TITLE= SPECTRASUITE EXPORTED SPECTRUM
##DATA TYPE= LINK
##BLOCKS= 3
##ORIGIN= OCEANOPTICS EXPORT
##OWNER= hugo
##TITLE= SPECTRASUITE EXPORTED SPECTRA: PROCESSED SPECTRUM
##JCAMP-DX= 5 $$EXPORTED SPECTRASUITE FILE
##DATA TYPE= UV/VIS SPECTRUM
##SAMPLE DESCRIPTION= PROCESSED SPECTRUM
##BLOCK_ID=1
##ORIGIN= OCEANOPTICS EXPORT
##OWNER= hugo
##SPECTROMETER/DATA SYSTEM= OCEANOPTICS EXPORT
##DATA PROCESSING= DARK:Yes REFERENCE:Yes
##DATA PROCESSING= BOXCAR:0 ELECTRICAL DARK: false
##.ACQUISITION TIME= 400
##.AVERAGES= 5
##XUNITS= NANOMETERS
##YUNITS= Transmission (%)
##XFACTOR= 1.0
##YFACTOR= 1.0
##FIRSTX= 176.36
##LASTX= 893.69
##FIRSTY= 32822.795
##MINY= 1665.408
##MAXY= 32822.795
##NPOINTS= 3648
##XYPOINTS= (XY..XY)
176.36, 32822.795
176.58, 32822.795
176.80, 32822.795
177.02, 1666.637
177.24, 1665.408
177.47, 2597.234
177.69, 2613.208
177.91, 3168.617
178.13, 2802.440
178.35, 2441.998
178.57, 2446.503
178.79, 2831.522
179.01, 2847.086
179.23, 2321.577
179.46, 2455.515
179.68, 2782.370
179.90, 2684.068
180.12, 2297.411
180.34, 2372.777
180.56, 2691.031
180.78, 3110.455
181.00, 2351.068
181.22, 2504.256
181.44, 2768.035
181.66, 2925.319
181.89, 2475.585
182.11, 2390.799
182.33, 2876.167
182.55, 3343.514
182.77, 2498.931
182.99, 2636.555
183.21, 2489.920
183.43, 2874.529
183.65, 2448.961
183.87, 2267.921
184.09, 3123.562
184.31, 2965.049
184.53, 2322.806
184.76, 2385.884
184.98, 2790.562
185.20, 3128.067
185.42, 2525.965
185.64, 2407.592
185.86, 3163.702
186.08, 3527.831
186.30, 2320.349
186.52, 2337.552
186.74, 3030.584
186.96, 2973.651
187.18, 2429.301
187.40, 2330.588
187.62, 3173.532
187.84, 3169.027
188.06, 2494.426
188.28, 2413.736
188.51, 3100.625
188.73, 3131.344
188.95, 2436.264
189.17, 2530.061
189.39, 2997.407
189.61, 3007.647
189.83, 2506.304
190.05, 2476.404
190.27, 3248.488
190.49, 3033.042
190.71, 2337.961
190.93, 2378.511
191.15, 2652.120
191.37, 3032.632
191.59, 2451.828
191.81, 2564.057
192.03, 2887.226
192.25, 3021.983
192.47, 2352.297
192.69, 2468.622
192.91, 2959.724
193.13, 2908.116
193.35, 2342.057
193.57, 2557.094
193.79, 2742.640
194.01, 3187.459
194.23, 2430.120
194.45, 2387.522
194.67, 3101.444
194.89, 2659.083
195.11, 2310.518
195.33, 2233.924
195.55, 2810.223
195.77, 2979.385
195.99, 2482.957
196.21, 2409.230
196.43, 3003.961
196.65, 2776.226
196.87, 2548.083
197.09, 2385.064
197.31, 3140.765
197.53, 3188.278
197.75, 2460.839
197.97, 2482.957
198.19, 3159.606
198.41, 3379.968
198.63, 2401.039
198.85, 2427.662
199.07, 3106.769
199.29, 2772.130
199.51, 2453.467
199.73, 2585.765
199.95, 2739.363
200.17, 3018.706
200.39, 2517.363
200.61, 2517.773
200.83, 2745.507
201.05, 3021.983
201.27, 2329.360
201.49, 2459.610
201.71, 3162.883
201.93, 3125.200
202.15, 2425.614
202.37, 2401.039
202.59, 2983.890
202.81, 2903.200
203.03, 2505.075
203.25, 2472.717
203.47, 2859.374
203.69, 2899.924
203.91, 2449.780
204.13, 2321.168
204.35, 2717.655
204.57, 3235.381
204.79, 2362.537
205.01, 2361.308
205.23, 3132.573
205.45, 2900.743
205.67, 2244.983
205.89, 2447.732
206.10, 3145.680
206.32, 2631.640
206.54, 2331.408
206.76, 2393.666
206.98, 2919.584
207.20, 2811.861
207.42, 2457.562
207.64, 2300.688
207.86, 2717.655
208.08, 3420.517
208.30, 2405.544
208.52, 2352.297
208.74, 3134.621
208.96, 3055.160
209.18, 2253.175
209.40, 2637.784
209.62, 2765.167
209.83, 2906.068
210.05, 2347.791
210.27, 2379.740
210.49, 2943.341
210.71, 2713.149
210.93, 2486.234
211.15, 2530.880
211.37, 2674.647
211.59, 2790.562
211.81, 2288.400
212.03, 2315.433
212.25, 2961.363
212.47, 2833.160
212.68, 2349.839
212.90, 2462.887
213.12, 2919.175
213.34, 3152.643
213.56, 2299.050
213.78, 2376.873
214.00, 3200.156
214.22, 2689.393
214.44, 2447.323
214.66, 2405.134
214.88, 2820.872
215.09, 2915.898
215.31, 2178.220
215.53, 2412.507
215.75, 3044.920
215.97, 2663.998
216.19, 2505.895
216.41, 2540.710
216.63, 2820.872
216.85, 3214.901
217.06, 2427.253
217.28, 2373.596
217.50, 2744.688
217.72, 3117.418
217.94, 2451.009
218.16, 2377.282
218.38, 2684.887
218.60, 2731.990
218.82, 2404.725
219.03, 2435.854
219.25, 2913.440
219.47, 2951.123
219.69, 2387.112
219.91, 2499.751
220.13, 3323.444
220.35, 2950.713
220.57, 2415.784
220.78, 2614.847
221.00, 3015.429
221.22, 3065.400
221.44, 2392.847
221.66, 2294.544
221.88, 3212.853
222.10, 2575.116
222.31, 2263.005
222.53, 2316.662
222.75, 2718.474
222.97, 2748.374
223.19, 2384.245
223.41, 2485.005
223.63, 2802.850
223.84, 3311.565
224.06, 2445.275
224.28, 2432.168
224.50, 3114.960
224.72, 2852.411
224.94, 2359.260
225.16, 2472.308
225.37, 3326.311
225.59, 2888.455
225.81, 2418.651
226.03, 2490.740
226.25, 3176.400
226.47, 2764.758
226.68, 2413.326
226.90, 2408.411
227.12, 2770.492
227.34, 3116.599
227.56, 2316.253
227.78, 2391.208
227.99, 2915.488
228.21, 2936.787
228.43, 2556.684
228.65, 2478.042
228.87, 2953.581
229.09, 2768.444
229.30, 2486.644
229.52, 2298.640
229.74, 2933.101
229.96, 3121.924
230.18, 2405.954
230.39, 2374.415
230.61, 2976.927
230.83, 2872.481
231.05, 2342.057
231.27, 2487.463
231.49, 2750.012
231.70, 3018.296
231.92, 2390.799
232.14, 2341.238
232.36, 2724.208
232.58, 3112.503
232.79, 2289.219
233.01, 2368.271
233.23, 2904.020
233.45, 2823.739
233.67, 2346.972
233.88, 2411.278
234.10, 3259.137
234.32, 3129.296
234.54, 2391.618
234.75, 2358.850
234.97, 2946.208
235.19, 3236.610
235.41, 2444.456
235.63, 2402.267
235.84, 3234.562
236.06, 2638.193
236.28, 2395.714
236.50, 2317.891
236.72, 2650.072
236.93, 2759.843
237.15, 2375.234
237.37, 2345.334
237.59, 3124.791
237.80, 2711.101
238.02, 2361.308
238.24, 2362.946
238.46, 3077.687
238.67, 3248.078
238.89, 2481.729
239.11, 2503.027
239.33, 2763.119
239.55, 2801.212
239.76, 2465.754
239.98, 2319.529
240.20, 2908.525
240.42, 2839.713
240.63, 2463.297
240.85, 2415.784
241.07, 2985.529
241.29, 3100.625
241.50, 2315.843
241.72, 2452.238
241.94, 2879.854
242.16, 3288.628
242.37, 2395.304
242.59, 2358.850
242.81, 2589.042
243.03, 3080.555
243.24, 2399.400
243.46, 2514.086
243.68, 3106.359
243.90, 2713.559
244.11, 2314.614
244.33, 2346.972
244.55, 2869.614
244.76, 2841.761
244.98, 2486.234
245.20, 2335.094
245.42, 2984.300
245.63, 2802.440
245.85, 2326.083
246.07, 2326.492
246.29, 2972.831
246.50, 2976.927
246.72, 2421.109
246.94, 2527.193
247.15, 2768.854
247.37, 3191.964
247.59, 2353.116
247.81, 2526.374
248.02, 2892.141
248.24, 3052.702
248.46, 2412.917
248.67, 2350.249
248.89, 3054.341
249.11, 3039.186
249.33, 2527.603
249.54, 2365.814
249.76, 2838.485
249.98, 2624.677
250.19, 2359.260
250.41, 2335.504
250.63, 3022.802
250.84, 2754.928
251.06, 2399.400
251.28, 2461.249
251.50, 2618.533
251.71, 2889.274
251.93, 2391.618
252.15, 2328.131
252.36, 2777.455
252.58, 3369.728
252.80, 2455.105
253.01, 2578.393
253.23, 3063.352
253.45, 2789.743
253.66, 2435.035
253.88, 2460.020
254.10, 2752.880
254.31, 3082.603
254.53, 2233.924
254.75, 2457.153
254.97, 3218.178
255.18, 2921.223
255.40, 2453.876
255.62, 2382.197
255.83, 2772.950
256.05, 3005.189
256.27, 2443.227
256.48, 2515.315
256.70, 2965.459
256.92, 3046.149
257.13, 2554.636
257.35, 2362.537
257.57, 3176.400
257.78, 2974.470
258.00, 2550.540
258.21, 2547.264
258.43, 3125.610
258.65, 2913.031
258.86, 2429.710
259.08, 2436.264
259.30, 3075.639
259.51, 3174.352
259.73, 2290.448
259.95, 2492.378
260.16, 3046.558
260.38, 3233.743
260.60, 2282.256
260.81, 2415.374
261.03, 3004.370
261.25, 2644.337
261.46, 2406.363
261.68, 2368.271
261.89, 2827.426
262.11, 2809.404
262.33, 2412.098
262.54, 2214.264
262.76, 3030.175
262.98, 2992.902
263.19, 2362.127
263.41, 2429.301
263.62, 2858.964
263.84, 2951.533
264.06, 2432.168
264.27, 2427.253
264.49, 2888.046
264.71, 2869.614
264.92, 2501.799
265.14, 2541.529
265.35, 3057.617
265.57, 3001.093
265.79, 2419.061
266.00, 2462.068
266.22, 3191.145
266.43, 2719.293
266.65, 2558.732
266.87, 2293.725
267.08, 2590.680
267.30, 2634.097
267.51, 2595.186
267.73, 2455.105
267.95, 3259.957
268.16, 2811.042
268.38, 2434.216
268.59, 2518.592
268.81, 2992.082
269.03, 3117.418
269.24, 2418.651
269.46, 2488.282
269.67, 2932.282
269.89, 2867.566
270.11, 2516.134
270.32, 2539.072
270.54, 2898.695
270.75, 3405.772
270.97, 2388.751
271.19, 2408.411
271.40, 2869.204
271.62, 2698.813
271.83, 2341.647
272.05, 2302.326
272.26, 3040.414
272.48, 3068.267
272.70, 2616.485
272.91, 2538.662
273.13, 3119.876
273.34, 3117.418
273.56, 2593.957
273.77, 2602.968
273.99, 3379.148
274.21, 3411.097
274.42, 2778.274
274.64, 2627.544
274.85, 3008.056
275.07, 2859.784
275.28, 2605.016
275.50, 2724.208
275.71, 2829.474
275.93, 2803.260
276.15, 2691.031
276.36, 2612.799
276.58, 3203.433
276.79, 2927.367
277.01, 2691.850
277.22, 2697.584
277.44, 3555.274
277.65, 3190.326
277.87, 2663.588
278.08, 2606.655
278.30, 3485.233
278.52, 3037.138
278.73, 2763.119
278.95, 2563.238
279.16, 2865.518
279.38, 3019.116
279.59, 2849.953
279.81, 2604.607
280.02, 3252.994
280.24, 3395.942
280.45, 2734.448
280.67, 2582.489
280.88, 3136.669
281.10, 3265.281
281.31, 2808.175
281.53, 2705.367
281.74, 3157.968
281.96, 2914.260
282.17, 2700.452
282.39, 2685.706
282.60, 2907.296
282.82, 3081.783
283.04, 2680.382
283.25, 2675.466
283.47, 3125.200
283.68, 3170.256
283.90, 2808.994
284.11, 2670.551
284.33, 2927.776
284.54, 3023.621
284.76, 2696.356
284.97, 2831.522
285.19, 3054.750
285.40, 3206.300
285.62, 2876.577
285.83, 2721.750
286.05, 3150.186
286.26, 3091.204
286.48, 2786.057
286.69, 2827.835
286.91, 2919.175
287.12, 3493.425
287.33, 2663.588
287.55, 2674.647
287.76, 3343.923
287.98, 3275.521
288.19, 3055.569
288.41, 2582.489
288.62, 3178.038
288.84, 3262.414
289.05, 2609.112
289.27, 2701.271
289.48, 3220.226
289.70, 2910.573
289.91, 2877.396
290.13, 2826.197
290.34, 3275.521
290.56, 3238.248
290.77, 2855.278
290.99, 2798.754
291.20, 3043.691
291.41, 3088.337
291.63, 2819.643
291.84, 2980.614
292.06, 3335.732
292.27, 3146.090
292.49, 2795.068
292.70, 3080.555
292.92, 3342.285
293.13, 3421.746
293.35, 2920.403
293.56, 2913.440
293.77, 3085.879
293.99, 3516.362
294.20, 2915.079
294.42, 2920.403
294.63, 3354.982
294.85, 3582.717
295.06, 2854.459
295.28, 2903.610
295.49, 2997.817
295.70, 3668.731
295.92, 2928.186
296.13, 3143.632
296.35, 3651.938
296.56, 3356.621
296.78, 2856.507
296.99, 3014.200
297.20, 3324.672
297.42, 3539.300
297.63, 3080.145
297.85, 2953.171
298.06, 3273.883
298.28, 3458.200
298.49, 2983.890
298.70, 3097.348
298.92, 3672.827
299.13, 3687.163
299.35, 3173.532
299.56, 3045.330
299.77, 3300.916
299.99, 3381.606
300.20, 3183.772
300.42, 3032.223
300.63, 3493.425
300.85, 3779.731
301.06, 3196.470
301.27, 3162.883
301.49, 3456.562
301.70, 3661.359
301.92, 3176.400
302.13, 3167.388
302.34, 3502.436
302.56, 3767.853
302.77, 3198.108
302.99, 3263.643
303.20, 3526.602
303.41, 3621.628
303.63, 3241.935
303.84, 3157.968
304.05, 3373.824
304.27, 3647.023
304.48, 3348.429
304.70, 3175.580
304.91, 3860.421
305.12, 3711.329
305.34, 3184.591
305.55, 3213.673
305.77, 3455.333
305.98, 3780.141
306.19, 3340.647
306.41, 3384.883
306.62, 3597.052
306.83, 3841.580
307.05, 3382.016
307.26, 3339.418
307.47, 4040.642
307.69, 4035.727
307.90, 3343.514
308.12, 3460.248
308.33, 3764.986
308.54, 4166.388
308.76, 3264.053
308.97, 3487.281
309.18, 3975.107
309.40, 3729.351
309.61, 3570.838
309.82, 3477.861
310.04, 3862.469
310.25, 4163.930
310.46, 3465.982
310.68, 3533.565
310.89, 3917.355
311.11, 3710.919
311.32, 3616.303
311.53, 3553.226
311.75, 4083.240
311.96, 4068.495
312.17, 3729.761
312.39, 3629.820
312.60, 4040.642
312.81, 4154.919
313.03, 3649.071
313.24, 3683.477
313.45, 3990.262
313.67, 4110.273
313.88, 3747.783
314.09, 3682.248
314.31, 4032.860
314.52, 4055.797
314.73, 3718.702
314.95, 3689.620
315.16, 4399.037
315.37, 4308.517
315.58, 3729.351
315.80, 3570.838
316.01, 3934.967
316.22, 4107.406
316.44, 3751.879
316.65, 3926.775
316.86, 4129.934
317.08, 4233.561
317.29, 3880.901
317.50, 3683.886
317.72, 4028.764
317.93, 4372.823
318.14, 3799.801
318.35, 3959.133
318.57, 4119.284
318.78, 4457.199
318.99, 3822.738
319.21, 3721.569
319.42, 4498.978
319.63, 4129.934
319.85, 3799.801
320.06, 3926.775
320.27, 4231.923
320.48, 4005.827
320.70, 3830.521
320.91, 3968.144
321.12, 4449.007
321.34, 4301.144
321.55, 3995.177
321.76, 3996.816
321.97, 4575.572
322.19, 4354.391
322.40, 4203.661
322.61, 4179.495
322.83, 4467.029
323.04, 4543.214
323.25, 4241.343
323.46, 4278.616
323.68, 4738.590
323.89, 4436.310
324.10, 4279.436
324.31, 4459.657
324.53, 4728.760
324.74, 4973.697
324.95, 4409.686
325.16, 4594.823
325.38, 5009.741
325.59, 5045.785
325.80, 4512.085
326.01, 4453.103
326.23, 5110.911
326.44, 4981.479
326.65, 4521.505
326.86, 4594.823
327.08, 4933.966
327.29, 4876.623
327.50, 4486.280
327.71, 4733.265
327.93, 4411.734
328.14, 4755.793
328.35, 4485.461
328.56, 4663.634
328.78, 5029.811
328.99, 5381.652
329.20, 4628.000
329.41, 4676.332
329.63, 5045.376
329.84, 4934.376
330.05, 4636.192
330.26, 4656.262
330.48, 4726.302
330.69, 4960.180
330.90, 4729.579
331.11, 4661.586
331.32, 4974.106
331.54, 5252.630
331.75, 4683.295
331.96, 4820.509
332.17, 5482.412
332.39, 4828.291
332.60, 4766.442
332.81, 4647.660
333.02, 4981.479
333.23, 4954.446
333.45, 4850.819
333.66, 4986.804
333.87, 5210.032
334.08, 5185.457
334.29, 4894.645
334.51, 5070.361
334.72, 5396.398
334.93, 5360.353
335.14, 5025.715
335.35, 5009.741
335.57, 5194.878
335.78, 5384.110
335.99, 5034.726
336.20, 4908.572
336.41, 5347.656
336.63, 5725.711
336.84, 5086.745
337.05, 5372.232
337.26, 5859.239
337.47, 5426.708
337.69, 5445.139
337.90, 5253.040
338.11, 5793.704
338.32, 6080.010
338.53, 5218.634
338.74, 5315.708
338.96, 6007.512
339.17, 6216.404
339.38, 5812.545
339.59, 5637.239
339.80, 6025.534
340.01, 6175.035
340.23, 5776.501
340.44, 5486.508
340.65, 6148.821
340.86, 6008.740
341.07, 5690.486
341.28, 5787.150
341.50, 6240.980
341.71, 6067.722
341.92, 5911.257
342.13, 5856.781
342.34, 6064.035
342.55, 6112.368
342.77, 5929.279
342.98, 5928.870
343.19, 6436.356
343.40, 6464.618
343.61, 5959.589
343.82, 6238.522
344.03, 6145.954
344.25, 6789.016
344.46, 6005.054
344.67, 6298.323
344.88, 6447.825
345.09, 6716.928
345.30, 6268.013
345.51, 6357.305
345.73, 6745.190
345.94, 6637.057
346.15, 6553.910
346.36, 6542.031
346.57, 6786.968
346.78, 6584.629
346.99, 6567.017
347.21, 6620.673
347.42, 6755.020
347.63, 6696.039
347.84, 6589.135
348.05, 6574.389
348.26, 6769.356
348.47, 6680.474
348.68, 6467.076
348.89, 6703.821
349.11, 7013.883
349.32, 7117.101
349.53, 6434.718
349.74, 6713.651
349.95, 6703.002
350.16, 7099.488
350.37, 6501.891
350.58, 6838.577
350.79, 7243.256
351.01, 7288.721
351.22, 6762.802
351.43, 6816.459
351.64, 7309.200
351.85, 7257.182
352.06, 6857.009
352.27, 6850.865
352.48, 7204.344
352.69, 7477.544
352.90, 6905.751
353.12, 7063.854
353.33, 7323.127
353.54, 7190.418
353.75, 7024.533
353.96, 7066.721
354.17, 7345.245
354.38, 7622.949
354.59, 7202.706
354.80, 7235.064
355.01, 7366.544
355.22, 7466.484
355.43, 7242.027
355.64, 7348.521
355.86, 7855.189
356.07, 7929.735
356.28, 7406.274
356.49, 7084.334
356.70, 7745.008
356.91, 8183.683
357.12, 7599.602
357.33, 7551.270
357.54, 8035.001
357.75, 7929.735
357.96, 7480.820
358.17, 7606.566
358.38, 8019.436
358.59, 8093.163
358.80, 7757.706
359.02, 7788.835
359.23, 7919.905
359.44, 8354.074
359.65, 7721.252
359.86, 8046.469
360.07, 8281.166
360.28, 7955.539
360.49, 8117.329
360.70, 8204.163
360.91, 8351.207
361.12, 8479.000
361.33, 8252.904
361.54, 8233.244
361.75, 8756.295
361.96, 8614.576
362.17, 8528.971
362.38, 8408.550
362.59, 9147.867
362.80, 8893.100
363.01, 8410.598
363.22, 8585.904
363.43, 8553.546
363.64, 9036.048
363.85, 8406.093
364.06, 8755.066
364.27, 9029.085
364.48, 9188.417
364.69, 8591.638
364.90, 8670.690
365.11, 9115.919
365.33, 9245.760
365.54, 8713.697
365.75, 8966.826
365.96, 9304.332
366.17, 9103.221
366.38, 8846.406
366.59, 8927.915
366.80, 8958.634
367.01, 9651.258
367.22, 8551.498
367.43, 8829.203
367.64, 9264.191
367.85, 9311.704
368.06, 8792.339
368.27, 8934.059
368.48, 9699.590
368.69, 8938.974
368.90, 9074.959
369.11, 9048.745
369.32, 9554.593
369.53, 9353.483
369.74, 9041.372
369.94, 9061.033
370.15, 9294.911
370.36, 9723.756
370.57, 8917.266
370.78, 9299.826
370.99, 9433.354
371.20, 9851.549
371.41, 9296.549
371.62, 9426.800
371.83, 9431.306
372.04, 9422.295
372.25, 9175.310
372.46, 9444.003
372.67, 9483.734
372.88, 10003.099
373.09, 9162.612
373.30, 9283.852
373.51, 9500.117
373.72, 9859.331
373.93, 9534.114
374.14, 9382.564
374.35, 9836.804
374.56, 10160.383
374.77, 9651.667
374.98, 9392.394
375.19, 10039.552
375.40, 10091.980
375.61, 9530.837
375.82, 9783.147
376.03, 9955.995
376.23, 10102.220
376.44, 9713.106
376.65, 9628.320
376.86, 9946.575
377.07, 10299.644
377.28, 9952.309
377.49, 9809.361
377.70, 10286.128
377.91, 10085.836
378.12, 9772.907
378.33, 9916.265
378.54, 9977.294
378.75, 10608.069
378.96, 9893.737
379.17, 9792.158
379.37, 10453.242
379.58, 10246.807
379.79, 9868.342
380.00, 9961.320
380.21, 10293.091
380.42, 10472.903
380.63, 10041.600
380.84, 10123.929
381.05, 10692.035
381.26, 10723.164
381.47, 10191.921
381.68, 10508.128
381.89, 10812.456
382.09, 10427.438
382.30, 10524.511
382.51, 10424.571
382.72, 10846.452
382.93, 10610.936
383.14, 10250.493
383.35, 10674.832
383.56, 10786.651
383.77, 10872.666
383.98, 10552.773
384.18, 10827.611
384.39, 11076.234
384.60, 11118.832
384.81, 10535.161
385.02, 10422.932
385.23, 10823.515
385.44, 11082.788
385.65, 10740.367
385.86, 10643.294
386.06, 11224.507
386.27, 11332.640
386.48, 10857.921
386.69, 10767.810
386.90, 10723.164
387.11, 11308.064
387.32, 10745.692
387.53, 10841.537
387.73, 11050.839
387.94, 11491.562
388.15, 11029.950
388.36, 10843.585
388.57, 11625.909
388.78, 11462.072
388.99, 11151.599
389.20, 10716.201
389.40, 11944.573
389.61, 11195.016
389.82, 10946.393
390.03, 11033.636
390.24, 11665.230
390.45, 11162.658
390.66, 11300.282
390.86, 10986.124
391.07, 11180.271
391.28, 11364.998
391.49, 10999.231
391.70, 11135.625
391.91, 11363.769
392.12, 11798.758
392.32, 11120.470
392.53, 11359.673
392.74, 11757.798
392.95, 11824.562
393.16, 11243.758
393.37, 11333.869
393.57, 11684.890
393.78, 11596.828
393.99, 11764.761
394.20, 11462.481
394.41, 12080.968
394.62, 11943.344
394.82, 11766.809
395.03, 11707.828
395.24, 11979.388
395.45, 11795.481
395.66, 11664.820
395.87, 11630.415
396.07, 12096.123
396.28, 12172.717
396.49, 12248.492
396.70, 11835.211
396.91, 11949.898
397.11, 12327.953
397.32, 11539.894
397.53, 11909.757
397.74, 12243.167
397.95, 12257.093
398.16, 11780.735
398.36, 12260.779
398.57, 12453.288
398.78, 12175.584
398.99, 12009.289
399.20, 11853.643
399.40, 11688.577
399.61, 12616.716
399.82, 11912.215
400.03, 12103.086
400.24, 12325.905
400.44, 12189.100
400.65, 11827.839
400.86, 12100.219
401.07, 12504.078
401.27, 12641.292
401.48, 12108.820
401.69, 12005.193
401.90, 12914.491
402.11, 12504.488
402.31, 12290.270
402.52, 12348.842
402.73, 12297.643
402.94, 12371.370
403.15, 12226.373
403.35, 12110.458
403.56, 12883.362
403.77, 12529.473
403.98, 12354.576
404.18, 12175.584
404.39, 12702.731
404.60, 12676.927
404.81, 12527.834
405.01, 12546.676
405.22, 12915.720
405.43, 13128.708
405.64, 12776.458
405.85, 12743.690
406.05, 13177.450
406.26, 13134.033
406.47, 12851.823
406.68, 12829.295
406.88, 13607.524
407.09, 13102.085
407.30, 12660.952
407.51, 12451.240
407.71, 13717.295
407.92, 12618.764
408.13, 12670.783
408.34, 12792.842
408.54, 13000.506
408.75, 12711.332
408.96, 13597.284
409.16, 13098.399
409.37, 13313.435
409.58, 13479.321
409.79, 13265.513
409.99, 13136.491
410.20, 13725.487
410.41, 13081.605
410.62, 12726.897
410.82, 13116.421
411.03, 13877.036
411.24, 13350.708
411.45, 13191.786
411.65, 13073.004
411.86, 13408.051
412.07, 13569.431
412.27, 13291.727
412.48, 13262.236
412.69, 13367.911
412.90, 14133.852
413.10, 13156.561
413.31, 13324.085
413.52, 13678.793
413.72, 13241.347
413.93, 13319.170
414.14, 12993.133
414.35, 13570.251
414.55, 13935.608
414.76, 13381.428
414.97, 13533.387
415.17, 13617.354
415.38, 13822.970
415.59, 13230.697
415.79, 13435.085
416.00, 14156.789
416.21, 14250.176
416.41, 13421.158
416.62, 12957.908
416.83, 14235.021
417.04, 14223.962
417.24, 13737.365
417.45, 13589.911
417.66, 13885.228
417.86, 14093.302
418.07, 13489.151
418.28, 13793.479
418.48, 14370.187
418.69, 13970.833
418.90, 14123.612
419.10, 13870.892
419.31, 14060.534
419.52, 14187.508
419.72, 13868.844
419.93, 13970.014
420.14, 14540.988
420.34, 14327.180
420.55, 13710.741
420.76, 14296.460
420.96, 14017.936
421.17, 14219.047
421.38, 13780.372
421.58, 13977.387
421.79, 14450.467
422.00, 14456.611
422.20, 13755.796
422.41, 13703.778
422.62, 13859.833
422.82, 14299.327
423.03, 13840.992
423.24, 14058.896
423.44, 13752.929
423.65, 13935.199
423.85, 13682.889
424.06, 13935.608
424.27, 14432.445
424.47, 14218.637
424.68, 14352.165
424.89, 14260.416
425.09, 14319.398
425.30, 13972.881
425.51, 13847.546
425.71, 13841.811
425.92, 14091.254
426.12, 14876.445
426.33, 13848.774
426.54, 13516.184
426.74, 14217.409
426.95, 14336.600
427.16, 13442.457
427.36, 14576.213
427.57, 14271.065
427.77, 14746.194
427.98, 14072.822
428.19, 14361.586
428.39, 14366.501
428.60, 14485.283
428.81, 14361.176
429.01, 13741.870
429.22, 14570.888
429.42, 14279.667
429.63, 14385.342
429.84, 14255.910
430.04, 14911.670
430.25, 14806.404
430.45, 14025.309
430.66, 14954.268
430.87, 14186.689
431.07, 14457.840
431.28, 14450.467
431.48, 14429.988
431.69, 14902.249
431.90, 14487.331
432.10, 15206.168
432.31, 14431.626
432.51, 15014.478
432.72, 15004.648
432.92, 14934.198
433.13, 14591.777
433.34, 15015.707
433.54, 15149.644
433.75, 14785.925
433.95, 14694.176
434.16, 15503.123
434.37, 14917.404
434.57, 14726.943
434.78, 15014.068
434.98, 15277.847
435.19, 15252.452
435.39, 15619.038
435.60, 15146.367
435.81, 15807.861
436.01, 15276.208
436.22, 14741.279
436.42, 15104.179
436.63, 15912.308
436.83, 16028.632
437.04, 15517.459
437.24, 15552.275
437.45, 15801.308
437.66, 15550.227
437.86, 15023.489
438.07, 15647.710
438.27, 15647.300
438.48, 15508.039
438.68, 15433.083
438.89, 15666.961
439.09, 15789.020
439.30, 15823.016
439.50, 14885.866
439.71, 15808.680
439.92, 15546.950
440.12, 15655.492
440.33, 15229.924
440.53, 15854.145
440.74, 15783.286
440.94, 15801.717
441.15, 15485.511
441.35, 15512.954
441.56, 15781.647
441.76, 16021.260
441.97, 15521.965
442.17, 16017.164
442.38, 15495.341
442.58, 15896.743
442.79, 15254.910
443.00, 15395.400
443.20, 16004.057
443.41, 15587.500
443.61, 15165.618
443.82, 15553.503
444.02, 15580.127
444.23, 15528.518
444.43, 15252.452
444.64, 15370.415
444.84, 15827.931
445.05, 15268.017
445.25, 15385.980
445.46, 15685.393
445.66, 15322.493
445.87, 15178.725
446.07, 15124.659
446.28, 15392.943
446.48, 15948.352
446.69, 15295.869
446.89, 15417.109
447.10, 15539.987
447.30, 16000.370
447.51, 15856.193
447.71, 16188.374
447.92, 15783.695
448.12, 16302.650
448.33, 16033.138
448.53, 15667.780
448.73, 16138.813
448.94, 17215.225
449.14, 16387.846
449.35, 16301.012
449.55, 16328.455
449.76, 16738.868
449.96, 17026.812
450.17, 16446.827
450.37, 16780.646
450.58, 16921.956
450.78, 16776.550
450.99, 16446.827
451.19, 16665.960
451.40, 16687.669
451.60, 16785.561
451.81, 16692.584
452.01, 16509.086
452.21, 16527.517
452.42, 16651.215
452.62, 15789.839
452.83, 16301.012
453.03, 16482.462
453.24, 16264.149
453.44, 16221.141
453.65, 15902.068
453.85, 16648.348
454.06, 16074.097
454.26, 16068.772
454.46, 16178.134
454.67, 16176.086
454.87, 16436.997
455.08, 16231.381
455.28, 15653.854
455.49, 16776.141
455.69, 16395.219
455.89, 15910.669
456.10, 15767.311
456.30, 16856.421
456.51, 16448.466
456.71, 16060.990
456.92, 16058.123
457.12, 16969.059
457.32, 16336.237
457.53, 16396.857
457.73, 16507.038
457.94, 17017.392
458.14, 16575.440
458.35, 16261.281
458.55, 16088.433
458.75, 16963.325
458.96, 17070.229
459.16, 16436.178
459.37, 16875.672
459.57, 16561.514
459.77, 16978.890
459.98, 16548.816
460.18, 16983.395
460.39, 17454.428
460.59, 17224.646
460.79, 17241.030
461.00, 16810.547
461.20, 17704.280
461.41, 17838.627
461.61, 17482.280
461.81, 17431.900
462.02, 17800.535
462.22, 18561.970
462.43, 18101.177
462.63, 17562.151
462.83, 18514.047
463.04, 18292.457
463.24, 18396.084
463.45, 18301.058
463.65, 18411.649
463.85, 18886.368
464.06, 18198.250
464.26, 18773.320
464.46, 19280.807
464.67, 19595.375
464.87, 19103.452
465.08, 18945.349
465.28, 19895.197
465.48, 19714.157
465.69, 19689.172
465.89, 19667.053
466.09, 20827.842
466.30, 20772.547
466.50, 20034.459
466.71, 20717.661
466.91, 21350.893
467.11, 21802.675
467.32, 21166.167
467.52, 21245.218
467.72, 21851.417
467.93, 21298.056
468.13, 21912.037
468.33, 21314.440
468.54, 22718.117
468.74, 22299.513
468.94, 22077.103
469.15, 21676.930
469.35, 21941.937
469.55, 22188.103
469.76, 21823.565
469.96, 21649.487
470.17, 21554.871
470.37, 22281.900
470.57, 21695.362
470.78, 21703.554
470.98, 22536.258
471.18, 22589.095
471.39, 21951.767
471.59, 22312.210
471.79, 22497.756
471.99, 22337.195
472.20, 22340.062
472.40, 22334.328
472.60, 22141.000
472.81, 22710.745
473.01, 22719.346
473.21, 22338.424
473.42, 23062.995
473.62, 22826.660
473.82, 22725.900
474.03, 22380.612
474.23, 22566.158
474.43, 22553.870
474.64, 21684.303
474.84, 22070.959
475.04, 22285.177
475.25, 21842.816
475.45, 21887.461
475.65, 21481.963
475.85, 21690.856
476.06, 21890.328
476.26, 21471.314
476.46, 21424.620
476.67, 21714.613
476.87, 21745.742
477.07, 21460.255
477.28, 21404.960
477.48, 21927.192
477.68, 22021.398
477.88, 21590.096
478.09, 21856.332
478.29, 22113.557
478.49, 22853.283
478.70, 22037.782
478.90, 22351.121
479.10, 22723.852
479.30, 23292.777
479.51, 22586.638
479.71, 22633.331
479.91, 23597.515
480.11, 23712.201
480.32, 23561.880
480.52, 23937.068
480.72, 23800.264
480.93, 24153.743
481.13, 23949.356
481.33, 24374.924
481.53, 24949.174
481.74, 25005.289
481.94, 24774.278
482.14, 24343.385
482.34, 24997.097
482.55, 24995.868
482.75, 24892.651
482.95, 24447.013
483.15, 25229.337
483.36, 24516.644
483.56, 25238.348
483.76, 24398.680
483.96, 24782.879
484.17, 24872.171
484.37, 24221.326
484.57, 24439.640
484.77, 24648.123
484.98, 24675.156
485.18, 23939.116
485.38, 23951.404
485.58, 24533.437
485.79, 24236.072
485.99, 23558.194
486.19, 23814.190
486.39, 24585.865
486.59, 23817.467
486.80, 23710.563
487.00, 23334.146
487.20, 24166.850
487.40, 23894.061
487.61, 23855.559
487.81, 23281.718
488.01, 23892.013
488.21, 24168.489
488.41, 23670.423
488.62, 23877.677
488.82, 23765.449
489.02, 24235.253
489.22, 23828.526
489.43, 24006.699
489.63, 24749.702
489.83, 24530.160
490.03, 24292.186
490.23, 24356.492
490.44, 25039.695
490.64, 25000.783
490.84, 25114.650
491.04, 25085.569
491.24, 25331.325
491.45, 26098.495
491.65, 25563.156
491.85, 25437.001
492.05, 26518.328
492.25, 25940.391
492.45, 25560.288
492.66, 25375.152
492.86, 25740.100
493.06, 25912.129
493.26, 25519.739
493.46, 25278.897
493.67, 26224.240
493.87, 25353.034
494.07, 25212.543
494.27, 24791.071
494.47, 24934.839
494.67, 25148.647
494.88, 24539.171
495.08, 24452.747
495.28, 24814.828
495.48, 24638.293
495.68, 24228.290
495.89, 23990.725
496.09, 24128.349
496.29, 24129.168
496.49, 24077.559
496.69, 23824.430
496.89, 23639.703
497.09, 24090.666
497.30, 23502.080
497.50, 23608.574
497.70, 23863.751
497.90, 24141.865
498.10, 23152.287
498.30, 23832.622
498.51, 23301.788
498.71, 23414.017
498.91, 22939.708
499.11, 23287.453
499.31, 23433.678
499.51, 23683.530
499.71, 23045.383
499.92, 22912.674
500.12, 23380.840
500.32, 23156.383
500.52, 23314.895
500.72, 22689.855
500.92, 23420.161
501.12, 23455.386
501.32, 22615.719
501.53, 22866.800
501.73, 23400.910
501.93, 23251.818
502.13, 22631.283
502.33, 22471.132
502.53, 23122.796
502.73, 23127.302
502.93, 22657.907
503.14, 22763.173
503.34, 22838.128
503.54, 22816.010
503.74, 22660.365
503.94, 22349.073
504.14, 22945.032
504.34, 22777.508
504.54, 22660.774
504.74, 22294.597
504.95, 22646.029
505.15, 23116.652
505.35, 22030.819
505.55, 22335.966
505.75, 22509.634
505.95, 22648.896
506.15, 22276.985
506.35, 22333.509
506.55, 22465.398
506.75, 22667.737
506.95, 22111.919
507.16, 22223.738
507.36, 22406.416
507.56, 22565.339
507.76, 22213.907
507.96, 21959.140
508.16, 22114.376
508.36, 22156.155
508.56, 22077.513
508.76, 22191.380
508.96, 22238.073
509.16, 22686.169
509.36, 21887.871
509.57, 21897.291
509.77, 22168.852
509.97, 22234.387
510.17, 21935.793
510.37, 22231.110
510.57, 22016.893
510.77, 22028.771
510.97, 22110.280
511.17, 21848.550
511.37, 22582.132
511.57, 22576.398
511.77, 21983.306
511.97, 22108.232
512.17, 22449.014
512.37, 22626.778
512.57, 22256.505
512.78, 22006.243
512.98, 22536.258
513.18, 22317.535
513.38, 22062.767
513.58, 22297.465
513.78, 22702.553
513.98, 22594.010
514.18, 22449.833
514.38, 22195.066
514.58, 22141.819
514.78, 22378.564
514.98, 22346.206
515.18, 22118.472
515.38, 22554.689
515.58, 22635.379
515.78, 22262.240
515.98, 22370.372
516.18, 23078.560
516.38, 23005.652
516.58, 22713.202
516.78, 22332.690
516.98, 22534.619
517.18, 23074.874
517.38, 22569.025
517.58, 22929.058
517.78, 22974.113
517.98, 23337.014
518.18, 22833.213
518.38, 22949.128
518.58, 23697.046
518.78, 23119.929
518.98, 23017.940
519.18, 22839.767
519.38, 23437.774
519.58, 23306.294
519.78, 23023.674
519.98, 23289.501
520.18, 23521.331
520.38, 23412.379
520.58, 23255.914
520.78, 23146.143
520.98, 23626.596
521.18, 23631.511
521.38, 23372.648
521.58, 23313.667
521.78, 23844.910
521.98, 23573.759
522.18, 23339.061
522.38, 23563.519
522.58, 23191.608
522.78, 23746.607
522.98, 23511.091
523.18, 23298.512
523.38, 23772.002
523.58, 23501.670
523.78, 23125.254
523.98, 23263.287
524.18, 23721.622
524.38, 23663.460
524.58, 23327.183
524.78, 23319.811
524.98, 23747.017
525.18, 23452.109
525.38, 23583.179
525.58, 23450.881
525.78, 23948.947
525.98, 23799.445
526.18, 23370.600
526.38, 23248.951
526.58, 23606.117
526.78, 23477.095
526.98, 23429.991
527.17, 23346.025
527.37, 23442.279
527.57, 23383.298
527.77, 23108.460
527.97, 23459.482
528.17, 23263.696
528.37, 23295.645
528.57, 23244.855
528.77, 23149.829
528.97, 23690.083
529.17, 23440.641
529.37, 23136.722
529.57, 22943.804
529.77, 23224.785
529.97, 23598.334
530.17, 23108.051
530.36, 23073.645
530.56, 23257.143
530.76, 23003.195
530.96, 22935.202
531.16, 22792.663
531.36, 23331.689
531.56, 23476.275
531.76, 22515.778
531.96, 22677.568
532.16, 23194.065
532.36, 22868.438
532.56, 22658.317
532.76, 22754.981
532.95, 22861.885
533.15, 23115.014
533.35, 22686.579
533.55, 22597.287
533.75, 23438.183
533.95, 22711.564
534.15, 22625.140
534.35, 22508.815
534.55, 23093.715
534.75, 22730.815
534.94, 22342.110
535.14, 22425.258
535.34, 22647.258
535.54, 22578.855
535.74, 22628.416
535.94, 22129.122
536.14, 22612.033
536.34, 22965.512
536.54, 22528.066
536.73, 22170.900
536.93, 22686.169
537.13, 22795.121
537.33, 22366.686
537.53, 22096.764
537.73, 22332.690
537.93, 22224.966
538.13, 22453.110
538.32, 21898.520
538.52, 22016.483
538.72, 22139.771
538.92, 21832.985
539.12, 21770.317
539.32, 22371.191
539.52, 22181.550
539.72, 21835.033
539.91, 21530.705
540.11, 21928.830
540.31, 22055.804
540.51, 21584.771
540.71, 21868.620
540.91, 22324.907
541.11, 21943.576
541.30, 21638.019
541.50, 21373.011
541.70, 21614.262
541.90, 21821.517
542.10, 21522.104
542.30, 21575.351
542.49, 22142.638
542.69, 21712.974
542.89, 21289.454
543.09, 21440.594
543.29, 22107.413
543.49, 22035.325
543.68, 21722.395
543.88, 21556.919
544.08, 21843.225
544.28, 21711.336
544.48, 21715.432
544.68, 21324.270
544.87, 21842.406
545.07, 21647.439
545.27, 21317.716
545.47, 21394.310
545.67, 21493.432
545.87, 21768.269
546.06, 21327.547
546.26, 21132.170
546.46, 21709.288
546.66, 21489.336
546.86, 21524.561
547.05, 21280.443
547.25, 21559.786
547.45, 21928.830
547.65, 21090.801
547.85, 20804.495
548.04, 21676.111
548.24, 21465.580
548.44, 21161.251
548.64, 21124.798
548.84, 21571.255
549.03, 20997.414
549.23, 20999.052
549.43, 20810.230
549.63, 21327.137
549.83, 21154.698
550.02, 20852.827
550.22, 20805.315
550.42, 20984.717
550.62, 21208.764
550.82, 20610.348
551.01, 20797.942
551.21, 21159.613
551.41, 21425.439
551.61, 20666.872
551.80, 21030.182
552.00, 20818.012
552.20, 21062.130
552.40, 20761.078
552.60, 20880.270
552.79, 21195.248
552.99, 21143.639
553.19, 20699.230
553.39, 20575.123
553.58, 20991.680
553.78, 20428.488
553.98, 20774.595
554.18, 20593.555
554.37, 20414.562
554.57, 20880.270
554.77, 20639.429
554.97, 20739.370
555.16, 21171.082
555.36, 21180.912
555.56, 20433.813
555.76, 20388.758
555.95, 21225.558
556.15, 20781.968
556.35, 20355.990
556.55, 20230.654
556.74, 20377.289
556.94, 20503.034
557.14, 20139.725
557.34, 20138.906
557.53, 20618.540
557.73, 20399.817
557.93, 19978.345
558.13, 19880.861
558.32, 20199.525
558.52, 20171.263
558.72, 19670.740
558.92, 19895.607
559.11, 20179.865
559.31, 20138.906
559.51, 19822.699
559.70, 19799.762
559.90, 19992.271
560.10, 19763.308
560.30, 19537.212
560.49, 19715.386
560.69, 19827.614
560.89, 20105.319
561.08, 19378.290
561.28, 19426.622
561.48, 19840.721
561.68, 19866.526
561.87, 19484.375
562.07, 19402.046
562.27, 19616.673
562.46, 19719.482
562.66, 19538.031
562.86, 19286.541
563.05, 19746.924
563.25, 19521.648
563.45, 19314.393
563.65, 19533.526
563.84, 20001.692
564.04, 19617.902
564.24, 19481.098
564.43, 19333.644
564.63, 19925.917
564.83, 19804.267
565.02, 19268.109
565.22, 19172.264
565.42, 19528.201
565.61, 19526.972
565.81, 19174.722
566.01, 19369.279
566.20, 19464.714
566.40, 19249.268
566.60, 19137.858
566.79, 18961.323
566.99, 19669.921
567.19, 19498.710
567.38, 19116.560
567.58, 19142.364
567.78, 19418.021
567.97, 19409.829
568.17, 19036.279
568.37, 19310.297
568.56, 19867.345
568.76, 19467.172
568.96, 19175.541
569.15, 19234.113
569.35, 21087.934
569.55, 19898.474
569.74, 19200.936
569.94, 19260.327
570.14, 19637.563
570.33, 19623.227
570.53, 19026.858
570.73, 19092.393
570.92, 19397.541
571.12, 19440.958
571.31, 18700.003
571.51, 19084.611
571.71, 19519.190
571.90, 19655.585
572.10, 18888.825
572.30, 19019.076
572.49, 19608.482
572.69, 19430.308
572.88, 19019.895
573.08, 18549.682
573.28, 19591.279
573.47, 19176.360
573.67, 18664.368
573.87, 18591.051
574.06, 18930.604
574.26, 19296.371
574.45, 18748.744
574.65, 18369.870
574.85, 19234.522
575.04, 18833.530
575.24, 18753.250
575.44, 18575.896
575.63, 18949.855
575.83, 18575.077
576.02, 18491.929
576.22, 18521.420
576.42, 19034.641
576.61, 18860.973
576.81, 18250.269
577.00, 18616.036
577.20, 18764.309
577.40, 18809.774
577.59, 18191.287
577.79, 18434.176
577.98, 18631.191
578.18, 18528.792
578.37, 18447.283
578.57, 18111.007
578.77, 18252.726
578.96, 18004.922
579.16, 18043.833
579.35, 17826.749
579.55, 18290.818
579.75, 18043.833
579.94, 18208.081
580.14, 17873.852
580.33, 18829.025
580.53, 18378.472
580.72, 17972.564
580.92, 18185.553
581.12, 18212.996
581.31, 18294.505
581.51, 18002.874
581.70, 17928.738
581.90, 18735.637
582.09, 17943.483
582.29, 17711.653
582.48, 17791.524
582.68, 18394.446
582.88, 18206.442
583.07, 17720.664
583.27, 17447.055
583.46, 18218.320
583.66, 18323.996
583.85, 17727.627
584.05, 17741.553
584.24, 18474.316
584.44, 18172.446
584.63, 17643.251
584.83, 17526.107
585.03, 18229.789
585.22, 17696.908
585.42, 17362.679
585.61, 17403.638
585.81, 17964.782
586.00, 17843.542
586.20, 17576.897
586.39, 17317.624
586.59, 17846.819
586.78, 17690.764
586.98, 17611.302
587.17, 17475.727
587.37, 17879.177
587.56, 18097.490
587.76, 17459.753
587.95, 17561.332
588.15, 17699.775
588.34, 18043.833
588.54, 17324.587
588.74, 17358.174
588.93, 17447.465
589.13, 17814.051
589.32, 17183.277
589.52, 16908.440
589.71, 18073.324
589.91, 17616.627
590.10, 17115.284
590.30, 17138.222
590.49, 17529.384
590.69, 17478.184
590.88, 17079.650
591.08, 16873.215
591.27, 17425.756
591.47, 16908.440
591.66, 16908.030
591.85, 17013.705
592.05, 17524.469
592.24, 17590.004
592.44, 16857.240
592.63, 16720.436
592.83, 17408.963
593.02, 17097.672
593.22, 16853.964
593.41, 16523.421
593.61, 17113.646
593.80, 17786.199
594.00, 16733.133
594.19, 16699.137
594.39, 17058.351
594.58, 16815.052
594.78, 16295.278
594.97, 16467.717
595.17, 16942.436
595.36, 16902.705
595.56, 16290.363
595.75, 16283.809
595.94, 16803.174
596.14, 16726.990
596.33, 16159.293
596.53, 16079.831
596.72, 16629.916
596.92, 16466.898
597.11, 16154.378
597.31, 16254.728
597.50, 16533.661
597.69, 16642.204
597.89, 16085.156
598.08, 15761.577
598.28, 16627.049
598.47, 16166.665
598.67, 16067.953
598.86, 15891.828
599.06, 16498.846
599.25, 16045.426
599.44, 15838.990
599.64, 15789.429
599.83, 16088.023
600.03, 16179.772
600.22, 15647.300
600.42, 15812.367
600.61, 15997.093
600.80, 15973.337
601.00, 15776.322
601.19, 15550.227
601.39, 16189.193
601.58, 15830.798
601.78, 15613.714
601.97, 15514.182
602.16, 15884.455
602.36, 15571.116
602.55, 15647.300
602.75, 15309.795
602.94, 15847.182
603.13, 15927.872
603.33, 15269.655
603.52, 15259.415
603.72, 15709.559
603.91, 15388.847
604.10, 15271.293
604.30, 15236.478
604.49, 15578.898
604.69, 15485.920
604.88, 14918.224
605.07, 15125.478
605.27, 15437.588
605.46, 15334.371
605.66, 15210.264
605.85, 14879.722
606.04, 15531.385
606.24, 15606.341
606.43, 14727.762
606.62, 14937.065
606.82, 15331.504
607.01, 15365.910
607.21, 14850.231
607.40, 14973.928
607.59, 15245.489
607.79, 14962.869
607.98, 14973.519
608.17, 14648.711
608.37, 15186.098
608.56, 15648.120
608.76, 14476.272
608.95, 14588.910
609.14, 15356.079
609.34, 15095.578
609.53, 14595.054
609.72, 14436.132
609.92, 14890.371
610.11, 14971.471
610.30, 14532.386
610.50, 14466.442
610.69, 14443.504
610.88, 15000.962
611.08, 14368.549
611.27, 14360.357
611.46, 14944.438
611.66, 14667.552
611.85, 14298.918
612.04, 14438.589
612.24, 14960.002
612.43, 14721.619
612.62, 14246.080
612.82, 14259.187
613.01, 14710.560
613.20, 14753.157
613.40, 14456.611
613.59, 14225.191
613.78, 14831.390
613.98, 14489.379
614.17, 14333.733
614.36, 14332.914
614.56, 15760.348
614.75, 14616.353
614.94, 14418.110
615.14, 14405.822
615.33, 15216.817
615.52, 15153.330
615.72, 14536.892
615.91, 14754.386
616.10, 15033.319
616.30, 15211.493
616.49, 14704.825
616.68, 14754.386
616.88, 15501.075
617.07, 15567.020
617.26, 14649.120
617.45, 14895.286
617.65, 15710.787
617.84, 14821.559
618.03, 14792.069
618.23, 14900.611
618.42, 15306.928
618.61, 15163.161
618.80, 14999.323
619.00, 14911.260
619.19, 15627.230
619.38, 15468.308
619.58, 15029.223
619.77, 15088.205
619.96, 15642.385
620.15, 15420.386
620.35, 15262.692
620.54, 15080.013
620.73, 15404.411
620.93, 15573.983
621.12, 15038.235
621.31, 15195.928
621.50, 15486.740
621.70, 16017.164
621.89, 15104.998
622.08, 14905.526
622.27, 15658.359
622.47, 15783.695
622.66, 14974.748
622.85, 15179.135
623.04, 15536.301
623.24, 15324.131
623.43, 15224.190
623.62, 15168.895
623.81, 15614.533
624.01, 15612.075
624.20, 14994.818
624.39, 15256.138
624.58, 15353.622
624.78, 15587.090
624.97, 14959.183
625.16, 14885.456
625.35, 15350.345
625.55, 15443.323
625.74, 14972.700
625.93, 14809.681
626.12, 15104.998
626.32, 15175.448
626.51, 14868.253
626.70, 14741.689
626.89, 15157.017
627.09, 15268.836
627.28, 14781.010
627.47, 14840.810
627.66, 15389.256
627.85, 15227.057
628.05, 14660.999
628.24, 14622.087
628.43, 15307.747
628.62, 15236.888
628.82, 14498.800
629.01, 14625.774
629.20, 14935.426
629.39, 14884.227
629.58, 14279.257
629.78, 14250.176
629.97, 14799.032
630.16, 14659.770
630.35, 14305.471
630.54, 14245.261
630.74, 14387.800
630.93, 14420.158
631.12, 13978.206
631.31, 13881.951
631.50, 14565.154
631.70, 14618.401
631.89, 13797.165
632.08, 14032.272
632.27, 13942.571
632.46, 14417.290
632.65, 13795.117
632.85, 13676.745
633.04, 14152.283
633.23, 14245.261
633.42, 13649.712
633.61, 13681.250
633.81, 14035.139
634.00, 13963.051
634.19, 13486.693
634.38, 13505.535
634.57, 13717.295
634.76, 13618.992
634.96, 13165.162
635.15, 13281.487
635.34, 13832.800
635.53, 13898.745
635.72, 13301.967
635.91, 13109.048
636.11, 13662.000
636.30, 13628.413
636.49, 13178.269
636.68, 12960.775
636.87, 13162.705
637.06, 13946.258
637.26, 12900.565
637.45, 12906.709
637.64, 13138.129
637.83, 13229.469
638.02, 12861.653
638.21, 12721.163
638.40, 13578.852
638.60, 13504.306
638.79, 12742.052
638.98, 12516.366
639.17, 13168.849
639.36, 12749.015
639.55, 12696.177
639.74, 12574.119
639.93, 12973.882
640.13, 13032.864
640.32, 12463.528
640.51, 12608.934
640.70, 13156.970
640.89, 13037.369
641.08, 12477.864
641.27, 12423.798
641.46, 12920.635
641.66, 12976.749
641.85, 12476.226
642.04, 12168.621
642.23, 13091.845
642.42, 12651.941
642.61, 12447.554
642.80, 12214.905
642.99, 12656.447
643.18, 12982.074
643.38, 12268.971
643.57, 12277.982
643.76, 12484.827
643.95, 12915.720
644.14, 12298.052
644.33, 12264.466
644.52, 12912.853
644.71, 12545.037
644.90, 12205.484
645.09, 12127.661
645.29, 12691.262
645.48, 12530.702
645.67, 12332.458
645.86, 12330.820
646.05, 12673.650
646.24, 12918.177
646.43, 12123.975
646.62, 12246.444
646.81, 12461.890
647.00, 12471.311
647.19, 11977.750
647.38, 12150.599
647.57, 12588.864
647.77, 12607.296
647.96, 12113.326
648.15, 11927.370
648.34, 12667.096
648.53, 12690.034
648.72, 11931.056
648.91, 12005.193
649.10, 12541.761
649.29, 11982.665
649.48, 11752.064
649.67, 11856.101
649.86, 12458.204
650.05, 11896.650
650.24, 11703.732
650.43, 11874.123
650.62, 12024.034
650.81, 12279.621
651.01, 11437.086
651.20, 11410.053
651.39, 12092.436
651.58, 12130.528
651.77, 11191.740
651.96, 11373.599
652.15, 11834.392
652.34, 11650.075
652.53, 11394.489
652.72, 11273.249
652.91, 11831.525
653.10, 11698.817
653.29, 11078.692
653.48, 11045.515
653.67, 11664.001
653.86, 11487.466
654.05, 10970.969
654.24, 10997.183
654.43, 11396.946
654.62, 11320.352
654.81, 10963.596
655.00, 10955.404
655.19, 11462.891
655.38, 11483.370
655.57, 10940.659
655.76, 10945.574
655.95, 11496.887
656.14, 11141.769
656.33, 10969.740
656.52, 10876.762
656.71, 11226.965
656.90, 11267.924
657.09, 10920.998
657.28, 10817.371
657.47, 11298.644
657.66, 11462.072
657.85, 10719.888
658.04, 10908.301
658.23, 10995.954
658.42, 11348.614
658.61, 10821.876
658.80, 10635.921
658.99, 11161.020
659.18, 11550.953
659.37, 10641.246
659.56, 10655.991
659.75, 11167.164
659.94, 10986.533
660.13, 10499.936
660.32, 10719.478
660.51, 11153.238
660.70, 10948.441
660.89, 10683.434
661.08, 10422.113
661.27, 11059.031
661.46, 10898.880
661.65, 10622.814
661.84, 10650.666
662.03, 10939.839
662.22, 11042.238
662.41, 10361.084
662.60, 10363.541
662.78, 10887.002
662.97, 11070.090
663.16, 10392.622
663.35, 10424.571
663.54, 10956.633
663.73, 11140.540
663.92, 10427.028
664.11, 10436.039
664.30, 10837.851
664.49, 11068.862
664.68, 10484.781
664.87, 10485.600
665.06, 11045.515
665.25, 10927.961
665.44, 10515.091
665.63, 10423.342
665.82, 11041.419
666.01, 11358.444
666.19, 10466.349
666.38, 10625.271
666.57, 11279.393
666.76, 10877.581
666.95, 10705.961
667.14, 10366.408
667.33, 10855.873
667.52, 11317.894
667.71, 10617.080
667.90, 10699.818
668.09, 11097.123
668.28, 10800.168
668.46, 10414.740
668.65, 10537.209
668.84, 11237.205
669.03, 10622.404
669.22, 10304.969
669.41, 10452.832
669.60, 11302.330
669.79, 10494.611
669.98, 10424.980
670.17, 10157.515
670.35, 10745.282
670.54, 10636.330
670.73, 10309.065
670.92, 10343.881
671.11, 10711.696
671.30, 10160.383
671.49, 10162.431
671.68, 10116.146
671.87, 10706.781
672.05, 10753.474
672.24, 10123.110
672.43, 10155.058
672.62, 10529.836
672.81, 10750.198
673.00, 10130.482
673.19, 9967.873
673.38, 10360.264
673.57, 10422.523
673.75, 10218.135
673.94, 10036.685
674.13, 10465.939
674.32, 10323.810
674.51, 9974.837
674.70, 9986.305
674.89, 10020.302
675.07, 10496.249
675.26, 10183.729
675.45, 9907.663
675.64, 10506.899
675.83, 10476.999
676.02, 9937.154
676.21, 10062.080
676.39, 10206.257
676.58, 9901.929
676.77, 9597.191
676.96, 9756.523
677.15, 10196.427
677.34, 10455.700
677.52, 9704.914
677.71, 9702.866
677.90, 10203.800
678.09, 10192.331
678.28, 9665.593
678.47, 9749.560
678.65, 10085.837
678.84, 10361.083
679.03, 9489.878
679.22, 9555.413
679.41, 9956.405
679.60, 9926.095
679.78, 9747.102
679.97, 9685.254
680.16, 10421.294
680.35, 10288.176
680.54, 10008.014
680.73, 9578.759
680.91, 10232.061
681.10, 10341.423
681.29, 9840.080
681.48, 9857.693
681.67, 10393.032
681.85, 10198.065
682.04, 9826.564
682.23, 9880.220
682.42, 10154.239
682.61, 10056.346
682.79, 9994.088
682.98, 10069.862
683.17, 10396.309
683.36, 10218.135
683.55, 9981.390
683.73, 10112.460
683.92, 10272.611
684.11, 10323.401
684.30, 9998.593
684.49, 9915.036
684.67, 10182.501
684.86, 10142.770
685.05, 9783.556
685.24, 9907.663
685.42, 10520.006
685.61, 10186.187
685.80, 9794.615
685.99, 9802.807
686.18, 10144.818
686.36, 10003.918
686.55, 9880.220
686.74, 9845.815
686.93, 10123.519
687.11, 10254.180
687.30, 9503.394
687.49, 9606.202
687.68, 10147.685
687.86, 10119.423
688.05, 9699.999
688.24, 9701.638
688.43, 10437.678
688.61, 10034.228
688.80, 9695.903
688.99, 9515.272
689.18, 10356.988
689.36, 10119.423
689.55, 9598.010
689.74, 9463.254
689.93, 10084.608
690.11, 9965.416
690.30, 9541.077
690.49, 9461.206
690.68, 10219.364
690.86, 9670.099
691.05, 9294.911
691.24, 9258.457
691.43, 9737.682
691.61, 9903.977
691.80, 9151.144
691.99, 9040.144
692.17, 9833.936
692.36, 9435.402
692.55, 9236.749
692.74, 8852.959
692.92, 9307.199
693.11, 9299.416
693.30, 9043.830
693.49, 8767.354
693.67, 8955.767
693.86, 9228.557
694.05, 8775.956
694.23, 8753.018
694.42, 9346.110
694.61, 8893.509
694.79, 8507.672
694.98, 8494.974
695.17, 9229.376
695.36, 8563.377
695.54, 8564.196
695.73, 8322.945
695.92, 8895.147
696.10, 9042.601
696.29, 8300.417
696.48, 8474.495
696.66, 9218.727
696.85, 8568.701
697.04, 8193.104
697.22, 8180.406
697.41, 8928.325
697.60, 8475.723
697.79, 8167.299
697.97, 8156.240
698.16, 8775.956
698.35, 8535.934
698.53, 8123.473
698.72, 8059.986
698.91, 8970.103
699.09, 8531.428
699.28, 8084.971
699.47, 8189.008
699.65, 8325.812
699.84, 8714.107
700.03, 8166.890
700.21, 8104.632
700.40, 8219.727
700.59, 8403.225
700.77, 8079.237
700.96, 7978.886
701.15, 8667.413
701.33, 8621.948
701.52, 7867.067
701.70, 8003.871
701.89, 8639.561
702.08, 8305.742
702.26, 7797.436
702.45, 7698.724
702.64, 7946.119
702.82, 8279.118
703.01, 7891.643
703.20, 7732.311
703.38, 8601.059
703.57, 7980.934
703.76, 7788.425
703.94, 7764.669
704.13, 8054.661
704.31, 7806.038
704.50, 7859.694
704.69, 7851.093
704.87, 8001.004
705.06, 8055.480
705.25, 7678.654
705.43, 7606.975
705.62, 8055.071
705.80, 8116.510
705.99, 7836.348
706.18, 7672.101
706.36, 8106.680
706.55, 7913.351
706.73, 7606.566
706.92, 7678.244
707.11, 8167.709
707.29, 8275.023
707.48, 7881.813
707.66, 7697.086
707.85, 7813.410
708.04, 8028.038
708.22, 7690.123
708.41, 7699.953
708.59, 8402.816
708.78, 8121.834
708.97, 7525.876
709.15, 7787.606
709.34, 8204.572
709.52, 8074.322
709.71, 7742.141
709.90, 7655.717
710.08, 8488.421
710.27, 7942.432
710.45, 7816.278
710.64, 7844.949
710.82, 8417.152
711.01, 8162.384
711.20, 7888.366
711.38, 7787.606
711.57, 8257.410
711.75, 7944.071
711.94, 8007.967
712.12, 7927.687
712.31, 8231.196
712.50, 8492.107
712.68, 7877.717
712.87, 8034.181
713.05, 8271.336
713.24, 8064.491
713.42, 7787.196
713.61, 7781.462
713.79, 8392.166
713.98, 7926.049
714.17, 7726.576
714.35, 7601.241
714.54, 8009.196
714.72, 7946.938
714.91, 7688.484
715.09, 7730.672
715.28, 7783.100
715.46, 8315.572
715.65, 7477.544
715.83, 7457.064
716.02, 8211.126
716.21, 7942.023
716.39, 7433.307
716.58, 7252.677
716.76, 7728.624
716.95, 7915.399
717.13, 7240.389
717.32, 7156.832
717.50, 8066.130
717.69, 7833.890
717.87, 7139.219
718.06, 7068.359
718.24, 7380.470
718.43, 7653.669
718.61, 7160.108
718.80, 7089.658
718.98, 7508.673
719.17, 7328.451
719.35, 7157.651
719.54, 7040.917
719.72, 7246.533
719.91, 7374.326
720.09, 6721.843
720.28, 6931.965
720.46, 7262.097
720.65, 7677.425
720.83, 6787.378
721.02, 6896.330
721.20, 7439.042
721.39, 7150.688
721.57, 6694.400
721.76, 6899.607
721.94, 7147.001
722.13, 7040.507
722.31, 6752.972
722.50, 6827.109
722.68, 6968.009
722.87, 7417.743
723.05, 6601.422
723.24, 7287.902
723.42, 6866.020
723.61, 7298.141
723.79, 6538.755
723.98, 6567.426
724.16, 7221.547
724.34, 6836.120
724.53, 6728.806
724.71, 6741.913
724.90, 6998.319
725.08, 7110.548
725.27, 6508.035
725.45, 6562.921
725.64, 6804.171
725.82, 7353.846
726.01, 6400.722
726.19, 6600.194
726.38, 6971.286
726.56, 6834.481
726.74, 6793.932
726.93, 6639.515
727.11, 7678.244
727.30, 7005.282
727.48, 6758.297
727.67, 6743.142
727.85, 7186.732
728.04, 7434.536
728.22, 6741.504
728.40, 6847.179
728.59, 7184.274
728.77, 7101.127
728.96, 6660.814
729.14, 6741.913
729.33, 7820.783
729.51, 7376.783
729.69, 6977.839
729.88, 6815.230
730.06, 7333.367
730.25, 7329.271
730.43, 6900.835
730.61, 6974.562
730.80, 7302.237
730.98, 7647.525
731.17, 6968.009
731.35, 6906.160
731.54, 7313.296
731.72, 7585.676
731.90, 6931.145
732.09, 7077.370
732.27, 7698.724
732.46, 7672.510
732.64, 6941.795
732.82, 6936.470
733.01, 7289.130
733.19, 7464.846
733.38, 6745.190
733.56, 7056.072
733.74, 7424.706
733.93, 7458.702
734.11, 6872.574
734.29, 6766.079
734.48, 7337.053
734.66, 7178.950
734.85, 6703.821
735.03, 6709.965
735.21, 7103.175
735.40, 7498.433
735.58, 6730.854
735.77, 6662.452
735.95, 7253.496
736.13, 6852.913
736.32, 6477.316
736.50, 6643.611
736.68, 6917.219
736.87, 7236.293
737.05, 6554.319
737.23, 6608.795
737.42, 7029.448
737.60, 6888.957
737.79, 6524.009
737.97, 6408.913
738.15, 7071.226
738.34, 6882.813
738.52, 6538.755
738.70, 6659.585
738.89, 7087.201
739.07, 6848.817
739.25, 6592.411
739.44, 6419.972
739.62, 7146.592
739.80, 6623.541
739.99, 6279.072
740.17, 6511.312
740.35, 7154.784
740.54, 6934.422
740.72, 6350.751
740.90, 6274.157
741.09, 6519.094
741.27, 6700.135
741.45, 6370.821
741.64, 6240.980
741.82, 6878.308
742.00, 6653.441
742.19, 6317.164
742.37, 6342.969
742.55, 6566.607
742.74, 6692.352
742.92, 6215.585
743.10, 6316.755
743.29, 6807.858
743.47, 6800.075
743.65, 6099.261
743.83, 6244.666
744.02, 6585.448
744.20, 6465.847
744.38, 6033.316
744.57, 6003.006
744.75, 6361.810
744.93, 6403.179
745.12, 6000.958
745.30, 6053.796
745.48, 6885.681
745.66, 6198.382
745.85, 5852.685
746.03, 5953.855
746.21, 6671.873
746.40, 6354.028
746.58, 6042.737
746.76, 5855.962
746.94, 6603.061
747.13, 6449.054
747.31, 5829.748
747.49, 6067.312
747.68, 6358.124
747.86, 6540.803
748.04, 5857.191
748.22, 5786.331
748.41, 6483.869
748.59, 6531.792
748.77, 5744.962
748.95, 5912.486
749.14, 6148.821
749.32, 6293.408
749.50, 5855.552
749.68, 5692.944
749.87, 6118.511
750.05, 6243.847
750.23, 5803.124
750.42, 5821.966
750.60, 6137.353
750.78, 6136.534
750.96, 5878.490
751.15, 5939.519
751.33, 5867.021
751.51, 6316.755
751.69, 5727.759
751.87, 5750.287
752.06, 5894.873
752.24, 6054.205
752.42, 5607.338
752.60, 5572.113
752.79, 6452.330
752.97, 6138.582
753.15, 5618.397
753.33, 5662.634
753.52, 5984.165
753.70, 6015.703
753.88, 5557.778
754.06, 5709.327
754.24, 5975.154
754.43, 6292.589
754.61, 5589.316
754.79, 5573.752
754.97, 5971.058
755.16, 6219.272
755.34, 5679.017
755.52, 5779.368
755.70, 6120.559
755.88, 5843.264
756.07, 5649.936
756.25, 5638.058
756.43, 6238.522
756.61, 5894.464
756.79, 5756.840
756.98, 5598.737
757.16, 6161.109
757.34, 5892.006
757.52, 5676.969
757.70, 5789.608
757.89, 6431.441
758.07, 6714.880
758.25, 5810.087
758.43, 5716.700
758.61, 6233.198
758.80, 6293.408
758.98, 5936.652
759.16, 5889.549
759.34, 6446.596
759.52, 6271.290
759.70, 5954.674
759.89, 6027.582
760.07, 6347.065
760.25, 6462.570
760.43, 5843.264
760.61, 6097.622
760.79, 6487.965
760.98, 6585.858
761.16, 6373.279
761.34, 6566.197
761.52, 6666.138
761.70, 7126.112
761.88, 6791.474
762.07, 6913.533
762.25, 7840.853
762.43, 7683.979
762.61, 7332.957
762.79, 7400.949
762.97, 7989.945
763.15, 7947.348
763.34, 7700.772
763.52, 7805.628
763.70, 8603.517
763.88, 8593.686
764.06, 8251.266
764.24, 8033.362
764.42, 8709.192
764.61, 8542.487
764.79, 8073.093
764.97, 8237.750
765.15, 8402.406
765.33, 8704.686
765.51, 8133.303
765.69, 8163.613
765.87, 8408.960
766.06, 8234.063
766.24, 7398.082
766.42, 7281.348
766.60, 7755.658
766.78, 7860.104
766.96, 7103.175
767.14, 6874.621
767.32, 7306.743
767.50, 6830.795
767.69, 6487.555
767.87, 6491.242
768.05, 6951.216
768.23, 6454.788
768.41, 6284.807
768.59, 5858.419
768.77, 6379.423
768.95, 6317.164
769.13, 5844.493
769.32, 5729.397
769.50, 6270.061
769.68, 6173.397
769.86, 5724.892
770.04, 5559.416
770.22, 5684.342
770.40, 6004.644
770.58, 5430.804
770.76, 5348.475
770.94, 6106.633
771.12, 5633.143
771.30, 5366.497
771.49, 5437.357
771.67, 5859.648
771.85, 5785.512
772.03, 5322.671
772.21, 5373.460
772.39, 5676.150
772.57, 5879.718
772.75, 5104.357
772.93, 5292.770
773.11, 5762.165
773.29, 5668.777
773.47, 5137.125
773.65, 5190.782
773.83, 5760.936
774.01, 5370.593
774.19, 5105.177
774.38, 5241.571
774.56, 5664.272
774.74, 5554.910
774.92, 4945.435
775.10, 4934.786
775.28, 5146.136
775.46, 5661.405
775.64, 4842.627
775.82, 4893.417
776.00, 5011.789
776.18, 5128.523
776.36, 4823.786
776.54, 5058.073
776.72, 5232.560
776.90, 5284.169
777.08, 4779.140
777.26, 4864.335
777.44, 5133.438
777.62, 5347.246
777.80, 4745.144
777.98, 4799.210
778.16, 5074.047
778.34, 5237.475
778.52, 4861.059
778.70, 4708.690
778.88, 5013.428
779.06, 4881.948
779.24, 4662.815
779.42, 4685.343
779.60, 5307.106
779.78, 5046.605
779.96, 4525.192
780.14, 4594.004
780.32, 5052.339
780.50, 5266.147
780.68, 4551.815
780.86, 4532.564
781.04, 5039.232
781.22, 4832.797
781.40, 4686.572
781.58, 4529.697
781.76, 5001.959
781.94, 5021.210
782.12, 4530.516
782.30, 4669.778
782.48, 5014.656
782.66, 5020.391
782.84, 4581.306
783.02, 4622.265
783.20, 5019.571
783.38, 5096.575
783.56, 4374.871
783.74, 4378.967
783.92, 4664.863
784.10, 4881.948
784.28, 4408.458
784.46, 4449.827
784.64, 4806.992
784.82, 4826.243
785.00, 4325.720
785.18, 4278.207
785.36, 5042.509
785.54, 4454.742
785.72, 4431.395
785.90, 4355.620
786.08, 4586.631
786.26, 4734.494
786.43, 4437.539
786.61, 4448.598
786.79, 5145.726
786.97, 5169.073
787.15, 4475.631
787.33, 4387.978
787.51, 4657.081
787.69, 5110.911
787.87, 4446.959
788.05, 4475.631
788.23, 5572.113
788.41, 4864.745
788.59, 4673.465
788.77, 4588.679
788.95, 5117.464
789.13, 5001.140
789.30, 4612.435
789.48, 4462.524
789.66, 5067.084
789.84, 5027.763
790.02, 4552.225
790.20, 4366.269
790.38, 5074.047
790.56, 4868.431
790.74, 4489.557
790.92, 4543.214
791.10, 5053.568
791.28, 5074.457
791.45, 4633.324
791.63, 4272.882
791.81, 5236.656
791.99, 4953.217
792.17, 4245.030
792.35, 4315.070
792.53, 4331.454
792.71, 4831.977
792.89, 4201.613
793.07, 4434.262
793.24, 4647.660
793.42, 4922.498
793.60, 4180.723
793.78, 4215.539
793.96, 4599.738
794.14, 4613.254
794.32, 4182.771
794.50, 4201.203
794.67, 4648.479
794.85, 4492.015
795.03, 4274.520
795.21, 4230.694
795.39, 4603.424
795.57, 4657.081
795.75, 4275.749
795.93, 4289.675
796.10, 5029.811
796.28, 4527.240
796.46, 4217.177
796.64, 4278.616
796.82, 4856.144
797.00, 4815.184
797.18, 4213.900
797.35, 4182.771
797.53, 4618.170
797.71, 4680.018
797.89, 4415.421
798.07, 4254.860
798.25, 4655.852
798.43, 4822.966
798.60, 4235.609
798.78, 4225.779
798.96, 4978.202
799.14, 4440.815
799.32, 4049.653
799.50, 4250.764
799.67, 4528.059
799.85, 4533.793
800.03, 4188.915
800.21, 4186.458
800.39, 4602.195
800.57, 4598.099
800.74, 4091.842
800.92, 4102.491
801.10, 4378.967
801.28, 4158.196
801.46, 3962.000
801.64, 3950.941
801.81, 4733.675
801.99, 4338.007
802.17, 4109.045
802.35, 4028.355
802.53, 4321.624
802.70, 3826.834
802.88, 3887.454
803.06, 3835.026
803.24, 4544.852
803.42, 4443.683
803.59, 3883.358
803.77, 3741.639
803.95, 4764.394
804.13, 4522.734
804.31, 3980.022
804.48, 3921.451
804.66, 4396.579
804.84, 4068.904
805.02, 3964.048
805.20, 3924.318
805.37, 4213.491
805.55, 4345.380
805.73, 3931.690
805.91, 3963.229
806.08, 4448.598
806.26, 4232.742
806.44, 3827.654
806.62, 3753.927
806.80, 4310.974
806.97, 4226.598
807.15, 3945.617
807.33, 3975.927
807.51, 4430.166
807.68, 3792.429
807.86, 3909.982
808.04, 3802.668
808.22, 4238.476
808.39, 5790.427
808.57, 3853.048
808.75, 3913.259
808.93, 4215.948
809.10, 4087.746
809.28, 3897.285
809.46, 3841.170
809.64, 4572.295
809.81, 4057.026
809.99, 3925.546
810.17, 3724.026
810.35, 4818.461
810.52, 4297.867
810.70, 3890.731
810.88, 3869.432
811.06, 4302.782
811.23, 4596.051
811.41, 3833.388
811.59, 3664.635
811.77, 4466.210
811.94, 4062.760
812.12, 3965.687
812.30, 3880.901
812.47, 4284.351
812.65, 4427.299
812.83, 3871.890
813.01, 3851.820
813.18, 4153.281
813.36, 4353.162
813.54, 3773.587
813.71, 3842.809
813.89, 4709.099
814.07, 4295.000
814.25, 4035.727
814.42, 3924.318
814.60, 4594.413
814.78, 4419.926
814.95, 3709.691
815.13, 4020.163
815.31, 4208.166
815.49, 4514.542
815.66, 3903.019
815.84, 3932.100
816.02, 4564.513
816.19, 4310.974
816.37, 3997.225
816.55, 4064.399
816.72, 4715.653
816.90, 4313.432
817.08, 3966.096
817.25, 4016.476
817.43, 4691.077
817.61, 4487.919
817.78, 4274.520
817.96, 4351.114
818.14, 4469.897
818.31, 4852.867
818.49, 4396.170
818.67, 4321.624
818.84, 4700.498
819.02, 4730.808
819.20, 4542.804
819.37, 4820.509
819.55, 5280.483
819.73, 5567.608
819.90, 5250.173
820.08, 5780.187
820.26, 6241.390
820.43, 6625.998
820.61, 6381.471
820.79, 6647.707
820.96, 7471.400
821.14, 7452.149
821.32, 7592.639
821.49, 7862.971
821.67, 8541.668
821.85, 8923.409
822.02, 8824.697
822.20, 8943.480
822.37, 9898.243
822.55, 9446.870
822.73, 9557.870
822.90, 9700.818
823.08, 10511.404
823.26, 10106.726
823.43, 10043.239
823.61, 10052.250
823.78, 10494.201
823.96, 10074.777
824.14, 10073.549
824.31, 9826.154
824.49, 10551.545
824.67, 10422.113
824.84, 9584.494
825.02, 9441.136
825.19, 9746.693
825.37, 10006.785
825.55, 8938.564
825.72, 8842.310
825.90, 8766.535
826.07, 8850.092
826.25, 8557.233
826.43, 8291.816
826.60, 8269.288
826.78, 8449.919
826.95, 7890.004
827.13, 7892.052
827.31, 8471.628
827.48, 8141.085
827.66, 7465.256
827.83, 7664.728
828.01, 7792.931
828.19, 7656.946
828.36, 7026.990
828.54, 7179.769
828.71, 7183.865
828.89, 7084.743
829.06, 6519.504
829.24, 6809.086
829.42, 6612.891
829.59, 6779.186
829.77, 6174.216
829.94, 5826.471
830.12, 6156.604
830.29, 5786.331
830.47, 5375.508
830.65, 5185.047
830.82, 6021.028
831.00, 5457.837
831.17, 4907.752
831.35, 4992.538
831.52, 5269.424
831.70, 5377.966
831.87, 4670.598
832.05, 4763.985
832.23, 5265.737
832.40, 5298.095
832.58, 5054.796
832.75, 5051.520
832.93, 5406.228
833.10, 5430.394
833.28, 5282.531
833.45, 5279.254
833.63, 5701.955
833.80, 5300.553
833.98, 5321.442
834.15, 5393.940
834.33, 5731.036
834.51, 5623.313
834.68, 5130.162
834.86, 5128.114
835.03, 5616.349
835.21, 5606.110
835.38, 5194.058
835.56, 5151.870
835.73, 5549.176
835.91, 5675.331
836.08, 4864.335
836.26, 4979.022
836.43, 5269.014
836.61, 5198.564
836.78, 4596.871
836.96, 4402.314
837.13, 5272.291
837.31, 4922.907
837.48, 4372.004
837.66, 4144.679
837.83, 4603.834
838.01, 4724.664
838.18, 3834.617
838.36, 3802.259
838.53, 4327.768
838.71, 4767.262
838.88, 3843.218
839.06, 3901.790
839.23, 4442.863
839.41, 4390.845
839.58, 3841.170
839.76, 3698.632
839.93, 4571.476
840.11, 4497.749
840.28, 3789.561
840.46, 3851.410
840.63, 4076.687
840.81, 4280.255
840.98, 3642.108
841.15, 3736.724
841.33, 4386.749
841.50, 4103.720
841.68, 3778.093
841.85, 3751.060
842.03, 4538.708
842.20, 4394.941
842.38, 3459.838
842.55, 3485.643
842.73, 4138.535
842.90, 3960.362
843.08, 3474.174
843.25, 3550.359
843.42, 3884.997
843.60, 4137.306
843.77, 3214.492
843.95, 3203.842
844.12, 3431.167
844.30, 3914.487
844.47, 3085.879
844.64, 3069.086
844.82, 4112.321
844.99, 3605.654
845.17, 3111.684
845.34, 2876.577
845.52, 3576.163
845.69, 3686.753
845.87, 3014.610
846.04, 2925.319
846.21, 3486.462
846.39, 3585.993
846.56, 2985.938
846.74, 2884.769
846.91, 3475.813
847.08, 3346.381
847.26, 2801.212
847.43, 2851.182
847.61, 3425.433
847.78, 3787.104
847.95, 2854.049
848.13, 2832.341
848.30, 3432.396
848.48, 3383.654
848.65, 2920.403
848.83, 2871.252
849.00, 3377.100
849.17, 3443.455
849.35, 2875.348
849.52, 2722.979
849.69, 3601.967
849.87, 3263.643
850.04, 2752.060
850.22, 2729.123
850.39, 3363.584
850.56, 3654.805
850.74, 2719.293
850.91, 2749.193
851.09, 3205.890
851.26, 3413.964
851.43, 2624.267
851.61, 2856.916
851.78, 3252.174
851.95, 3329.588
852.13, 2752.060
852.30, 2679.972
852.48, 3967.735
852.65, 3354.163
852.82, 2712.330
853.00, 2742.640
853.17, 3487.281
853.34, 2998.636
853.52, 2786.466
853.69, 2612.389
853.86, 3544.624
854.04, 3354.163
854.21, 2797.116
854.38, 2668.503
854.56, 3168.208
854.73, 3080.555
854.90, 2788.105
855.08, 2702.500
855.25, 3381.196
855.42, 2929.824
855.60, 2809.813
855.77, 2802.031
855.95, 3404.134
856.12, 3440.588
856.29, 2634.917
856.46, 2764.758
856.64, 3233.743
856.81, 3390.207
856.98, 2782.370
857.16, 2700.861
857.33, 3091.614
857.50, 3411.097
857.68, 2650.891
857.85, 2775.817
858.02, 3162.064
858.20, 3191.145
858.37, 2746.736
858.54, 2585.356
858.72, 4025.487
858.89, 3599.510
859.06, 2713.968
859.24, 2699.632
859.41, 3434.444
859.58, 3422.156
859.75, 2728.714
859.93, 2711.511
860.10, 3381.606
860.27, 3441.407
860.45, 2691.031
860.62, 2766.806
860.79, 3354.163
860.97, 3431.576
861.14, 2754.928
861.31, 2740.592
861.48, 3333.274
861.66, 3026.898
861.83, 2673.009
862.00, 2614.847
862.17, 3106.359
862.35, 3400.447
862.52, 2685.706
862.69, 2777.455
862.87, 3387.340
863.04, 3384.064
863.21, 2646.385
863.38, 2758.614
863.56, 3416.421
863.73, 3261.595
863.90, 2658.263
864.07, 2933.920
864.25, 3650.709
864.42, 3136.669
864.59, 2608.293
864.76, 2681.610
864.94, 3543.805
865.11, 3180.086
865.28, 2631.640
865.45, 2745.507
865.63, 3315.661
865.80, 3126.429
865.97, 2702.090
866.14, 2681.201
866.32, 3443.455
866.49, 3213.673
866.66, 2898.695
866.83, 2695.127
867.01, 3251.355
867.18, 3246.850
867.35, 2587.404
867.52, 2653.348
867.70, 3570.838
867.87, 3759.661
868.04, 2694.308
868.21, 2763.119
868.38, 3463.934
868.56, 3674.875
868.73, 2726.256
868.90, 2703.728
869.07, 3302.145
869.24, 3444.683
869.42, 2762.710
869.59, 2944.569
869.76, 3670.779
869.93, 3273.064
870.11, 2882.311
870.28, 2736.905
870.45, 3724.436
870.62, 3422.975
870.79, 2821.282
870.97, 2899.514
871.14, 3580.669
871.31, 3531.108
871.48, 2790.562
871.65, 3011.743
871.82, 3758.023
872.00, 3494.654
872.17, 2736.905
872.34, 2901.562
872.51, 3293.134
872.68, 3505.303
872.86, 3042.462
873.03, 2808.175
873.20, 3505.303
873.37, 3932.100
873.54, 2765.577
873.71, 2860.193
873.89, 3827.654
874.06, 3596.643
874.23, 2842.990
874.40, 2927.776
874.57, 3830.930
874.74, 3526.602
874.92, 2901.972
875.09, 2755.747
875.26, 3739.181
875.43, 3633.916
875.60, 2844.219
875.77, 2958.905
875.95, 3284.123
876.12, 3513.495
876.29, 2839.304
876.46, 3010.924
876.63, 3430.757
876.80, 3657.263
876.97, 3161.654
877.15, 2881.492
877.32, 3741.639
877.49, 3487.281
877.66, 3297.639
877.83, 3104.721
878.00, 3449.599
878.17, 4152.461
878.34, 3056.389
878.52, 3169.436
878.69, 3766.624
878.86, 3559.779
879.03, 3168.208
879.20, 3246.030
879.37, 3987.805
879.54, 4544.852
879.71, 3407.410
879.89, 3584.764
880.06, 4562.055
880.23, 4362.993
880.40, 3898.923
880.57, 4019.343
880.74, 4534.612
880.91, 5001.959
881.08, 4251.174
881.25, 4348.247
881.42, 5045.376
881.60, 4839.350
881.77, 4519.048
881.94, 4481.365
882.11, 5065.446
882.28, 5173.988
882.45, 4612.435
882.62, 4733.265
882.79, 5520.095
882.96, 5305.877
883.13, 4564.922
883.30, 4841.398
883.48, 5422.612
883.65, 5173.169
883.82, 4506.760
883.99, 4543.623
884.16, 5377.966
884.33, 4936.833
884.50, 4446.959
884.67, 4527.240
884.84, 4931.099
885.01, 4764.394
885.18, 4242.982
885.35, 4095.528
885.52, 4233.151
885.69, 4547.310
885.87, 3869.023
886.04, 3821.100
886.21, 4392.483
886.38, 4369.956
886.55, 3576.982
886.72, 3539.300
886.89, 4253.222
887.06, 4029.993
887.23, 3418.469
887.40, 3437.311
887.57, 3925.546
887.74, 3946.026
887.91, 3078.507
888.08, 3162.064
888.25, 3903.019
888.42, 4194.650
888.59, 3141.584
888.76, 3060.894
888.93, 3655.624
889.10, 3372.595
889.27, 3089.156
889.44, 3066.628
889.61, 3499.569
889.78, 3538.480
889.95, 3066.219
890.12, 3098.986
890.29, 3653.986
890.46, 3458.200
890.63, 2837.666
890.80, 2888.455
890.97, 3401.676
891.15, 3592.547
891.32, 2879.444
891.49, 2908.116
891.66, 3837.484
891.83, 3419.289
892.00, 2945.389
892.17, 3001.093
892.34, 3620.809
892.51, 3644.975
892.68, 2953.581
892.84, 2854.049
893.01, 3372.595
893.18, 3650.299
893.35, 2967.507
893.52, 2949.075
893.69, 3734.266
##END=
##TITLE= SPECTRASUITE EXPORTED SPECTRA: DARK SPECTRUM
##JCAMP-DX= 5 $$EXPORTED SPECTRASUITE FILE
##DATA TYPE= UV/VIS SPECTRUM
##SAMPLE DESCRIPTION= DARK SPECTRUM
##BLOCK_ID=2
##ORIGIN= OCEANOPTICS EXPORT
##OWNER= hugo
##SPECTROMETER/DATA SYSTEM= OCEANOPTICS EXPORT
##DATA PROCESSING= DARK:Yes REFERENCE:Yes
##DATA PROCESSING= BOXCAR:0 ELECTRICAL DARK: false
##.ACQUISITION TIME= 400
##.AVERAGES= 5
##XUNITS= NANOMETERS
##YUNITS= Transmission (%)
##XFACTOR= 1.0
##YFACTOR= 1.0
##FIRSTX= 176.36
##LASTX= 893.69
##FIRSTY= 32822.795
##MINY= 1654.349
##MAXY= 32822.795
##NPOINTS= 3648
##XYPOINTS= (XY..XY)
176.36, 32822.795
176.58, 32822.795
176.80, 32822.795
177.02, 1661.312
177.24, 1654.349
177.47, 2568.562
177.69, 2592.319
177.91, 3137.488
178.13, 2822.101
178.35, 2458.791
178.57, 2432.577
178.79, 2813.499
179.01, 2874.119
179.23, 2301.098
179.46, 2453.057
179.68, 2776.636
179.90, 2666.865
180.12, 2270.378
180.34, 2391.618
180.56, 2675.057
180.78, 3050.654
181.00, 2357.212
181.22, 2487.872
181.44, 2765.167
181.66, 2908.116
181.89, 2462.887
182.11, 2349.020
182.33, 2807.356
182.55, 3334.503
182.77, 2505.485
182.99, 2563.238
183.21, 2470.670
183.43, 2824.968
183.65, 2410.459
183.87, 2265.463
184.09, 3085.060
184.31, 2975.699
184.53, 2339.190
184.76, 2326.083
184.98, 2770.492
185.20, 3071.134
185.42, 2467.393
185.64, 2383.016
185.86, 3120.695
186.08, 3474.584
186.30, 2326.083
186.52, 2312.566
186.74, 3024.850
186.96, 2977.337
187.18, 2444.046
187.40, 2324.445
187.62, 3133.802
187.84, 3143.632
188.06, 2506.714
188.28, 2401.858
188.51, 3090.794
188.73, 3103.901
188.95, 2445.684
189.17, 2521.050
189.39, 2949.075
189.61, 2991.263
189.83, 2480.909
190.05, 2489.920
190.27, 3160.016
190.49, 2986.348
190.71, 2339.190
190.93, 2368.271
191.15, 2616.075
191.37, 3003.141
191.59, 2470.670
191.81, 2507.943
192.03, 2870.843
192.25, 2972.012
192.47, 2319.939
192.69, 2444.865
192.91, 2972.422
193.13, 2930.234
193.35, 2289.629
193.57, 2554.227
193.79, 2654.987
194.01, 3089.975
194.23, 2406.773
194.45, 2316.662
194.67, 3094.071
194.89, 2666.865
195.11, 2319.529
195.33, 2201.976
195.55, 2813.499
195.77, 2935.968
195.99, 2448.961
196.21, 2380.149
196.43, 3000.684
196.65, 2794.658
196.87, 2541.939
197.09, 2385.064
197.31, 3123.152
197.53, 3196.470
197.75, 2491.149
197.97, 2462.478
198.19, 3074.001
198.41, 3336.141
198.63, 2396.533
198.85, 2442.408
199.07, 3082.603
199.29, 2677.514
199.51, 2442.408
199.73, 2525.555
199.95, 2732.810
200.17, 3001.913
200.39, 2490.740
200.61, 2544.396
200.83, 2695.536
201.05, 2978.156
201.27, 2329.360
201.49, 2460.020
201.71, 3171.894
201.93, 3086.289
202.15, 2390.799
202.37, 2401.858
202.59, 2986.348
202.81, 2824.149
203.03, 2483.776
203.25, 2407.592
203.47, 2798.344
203.69, 2921.632
203.91, 2458.791
204.13, 2296.592
204.35, 2695.946
204.57, 3221.045
204.79, 2338.780
205.01, 2346.563
205.23, 3094.890
205.45, 2854.868
205.67, 2227.780
205.89, 2404.315
206.10, 3083.012
206.32, 2602.968
206.54, 2325.264
206.76, 2417.832
206.98, 2911.392
207.20, 2767.215
207.42, 2428.891
207.64, 2308.061
207.86, 2691.031
208.08, 3382.425
208.30, 2387.932
208.52, 2321.577
208.74, 3093.662
208.96, 3067.857
209.18, 2253.994
209.40, 2595.186
209.62, 2753.289
209.83, 2895.828
210.05, 2330.179
210.27, 2362.946
210.49, 2856.916
210.71, 2721.341
210.93, 2421.518
211.15, 2467.393
211.37, 2663.998
211.59, 2720.931
211.81, 2259.729
212.03, 2254.404
212.25, 2995.359
212.47, 2820.053
212.68, 2367.452
212.90, 2424.385
213.12, 2866.337
213.34, 3117.828
213.56, 2280.208
213.78, 2348.611
214.00, 3165.750
214.22, 2610.341
214.44, 2417.013
214.66, 2371.138
214.88, 2824.968
215.09, 2897.466
215.31, 2143.814
215.53, 2394.075
215.75, 3026.898
215.97, 2671.370
216.19, 2483.367
216.41, 2480.090
216.63, 2808.584
216.85, 3186.230
217.06, 2463.706
217.28, 2386.703
217.50, 2697.175
217.72, 3080.964
217.94, 2432.168
218.16, 2339.600
218.38, 2680.382
218.60, 2699.223
218.82, 2410.459
219.03, 2453.467
219.25, 2877.806
219.47, 2909.754
219.69, 2351.068
219.91, 2490.740
220.13, 3294.363
220.35, 2914.260
220.57, 2392.027
220.78, 2604.197
221.00, 2948.256
221.22, 3042.872
221.44, 2376.873
221.66, 2291.677
221.88, 3185.001
222.10, 2633.688
222.31, 2258.910
222.53, 2307.242
222.75, 2661.950
222.97, 2726.256
223.19, 2387.932
223.41, 2423.157
223.63, 2740.182
223.84, 3261.185
224.06, 2419.470
224.28, 2392.847
224.50, 3101.034
224.72, 2825.787
224.94, 2294.954
225.16, 2426.433
225.37, 3300.097
225.59, 2863.470
225.81, 2392.847
226.03, 2450.190
226.25, 3124.381
226.47, 2758.614
226.68, 2378.101
226.90, 2403.496
227.12, 2751.241
227.34, 3080.145
227.56, 2297.411
227.78, 2353.935
227.99, 2845.038
228.21, 2895.009
228.43, 2486.644
228.65, 2424.795
228.87, 2888.455
229.09, 2725.437
229.30, 2445.275
229.52, 2321.577
229.74, 2896.237
229.96, 3104.311
230.18, 2394.485
230.39, 2404.315
230.61, 2949.894
230.83, 2814.728
231.05, 2288.400
231.27, 2436.264
231.49, 2759.433
231.70, 2968.326
231.92, 2348.611
232.14, 2349.839
232.36, 2748.374
232.58, 3042.053
232.79, 2263.415
233.01, 2392.027
233.23, 2873.710
233.45, 2788.105
233.67, 2341.238
233.88, 2406.773
234.10, 3169.846
234.32, 3113.322
234.54, 2370.319
234.75, 2353.116
234.97, 2932.282
235.19, 3197.698
235.41, 2402.677
235.63, 2421.109
235.84, 3203.842
236.06, 2596.824
236.28, 2354.754
236.50, 2290.858
236.72, 2620.171
236.93, 2718.883
237.15, 2382.197
237.37, 2321.577
237.59, 3029.765
237.80, 2701.271
238.02, 2362.946
238.24, 2347.382
238.46, 3018.706
238.67, 3212.034
238.89, 2464.935
239.11, 2467.393
239.33, 2736.496
239.55, 2759.433
239.76, 2446.913
239.98, 2278.160
240.20, 2869.614
240.42, 2808.175
240.63, 2410.869
240.85, 2394.485
241.07, 2935.149
241.29, 3062.532
241.50, 2305.603
241.72, 2469.441
241.94, 2816.776
242.16, 3239.887
242.37, 2414.555
242.59, 2349.430
242.81, 2566.514
243.03, 3070.315
243.24, 2339.190
243.46, 2477.223
243.68, 3093.662
243.90, 2697.994
244.11, 2286.352
244.33, 2358.850
244.55, 2806.946
244.76, 2770.902
244.98, 2480.090
245.20, 2323.216
245.42, 2978.156
245.63, 2728.714
245.85, 2273.655
246.07, 2333.865
246.29, 2925.728
246.50, 2918.355
246.72, 2423.566
246.94, 2460.020
247.15, 2756.156
247.37, 3175.580
247.59, 2306.422
247.81, 2506.304
248.02, 2853.230
248.24, 3013.791
248.46, 2376.873
248.67, 2314.614
248.89, 2974.060
249.11, 3027.717
249.33, 2534.157
249.54, 2336.323
249.76, 2840.123
249.98, 2605.016
250.19, 2329.769
250.41, 2308.061
250.63, 2936.378
250.84, 2749.603
251.06, 2397.352
251.28, 2431.348
251.50, 2601.740
251.71, 2890.913
251.93, 2364.994
252.15, 2318.710
252.36, 2761.481
252.58, 3336.141
252.80, 2414.965
253.01, 2566.514
253.23, 3013.381
253.45, 2801.621
253.66, 2414.555
253.88, 2428.072
254.10, 2770.902
254.31, 3008.876
254.53, 2229.009
254.75, 2430.120
254.97, 3173.942
255.18, 2943.750
255.40, 2371.138
255.62, 2374.415
255.83, 2723.389
256.05, 2972.012
256.27, 2394.075
256.48, 2455.515
256.70, 2942.522
256.92, 3001.913
257.13, 2514.496
257.35, 2280.618
257.57, 3131.754
257.78, 2924.090
258.00, 2543.577
258.21, 2535.385
258.43, 3107.178
258.65, 2909.344
258.86, 2379.740
259.08, 2402.267
259.30, 3047.377
259.51, 3164.112
259.73, 2282.666
259.95, 2487.463
260.16, 3027.307
260.38, 3165.750
260.60, 2268.740
260.81, 2378.101
261.03, 2935.558
261.25, 2603.378
261.46, 2383.426
261.68, 2330.179
261.89, 2774.178
262.11, 2817.186
262.33, 2382.607
262.54, 2153.644
262.76, 2960.544
262.98, 2926.138
263.19, 2352.297
263.41, 2367.042
263.62, 2779.503
263.84, 2881.902
264.06, 2359.260
264.27, 2379.740
264.49, 2865.927
264.71, 2812.271
264.92, 2440.769
265.14, 2482.548
265.35, 2983.890
265.57, 2932.282
265.79, 2381.788
266.00, 2441.179
266.22, 3160.835
266.43, 2664.407
266.65, 2493.197
266.87, 2223.684
267.08, 2529.651
267.30, 2612.389
267.51, 2465.754
267.73, 2387.112
267.95, 3132.573
268.16, 2690.621
268.38, 2412.098
268.59, 2479.681
268.81, 2904.020
269.03, 3014.200
269.24, 2326.902
269.46, 2428.891
269.67, 2841.352
269.89, 2753.699
270.11, 2416.194
270.32, 2426.843
270.54, 2828.654
270.75, 3321.805
270.97, 2304.374
271.19, 2330.179
271.40, 2798.754
271.62, 2643.928
271.83, 2263.825
272.05, 2244.574
272.26, 2869.614
272.48, 2973.241
272.70, 2503.847
272.91, 2477.223
273.13, 2963.001
273.34, 3012.152
273.56, 2451.419
273.77, 2471.079
273.99, 3224.322
274.21, 3316.071
274.42, 2649.252
274.64, 2498.522
274.85, 2838.485
275.07, 2729.533
275.28, 2461.658
275.50, 2601.330
275.71, 2669.732
275.93, 2675.057
276.15, 2575.935
276.36, 2481.729
276.58, 3043.691
276.79, 2808.584
277.01, 2570.610
277.22, 2557.503
277.44, 3381.606
277.65, 3049.425
277.87, 2539.481
278.08, 2459.610
278.30, 3344.333
278.52, 2892.551
278.73, 2614.846
278.95, 2428.891
279.16, 2675.466
279.38, 2894.189
279.59, 2628.363
279.81, 2411.278
280.02, 3101.853
280.24, 3194.422
280.45, 2556.684
280.67, 2404.315
280.88, 2914.669
281.10, 3078.097
281.31, 2604.197
281.53, 2513.267
281.74, 2985.119
281.96, 2764.348
282.17, 2486.234
282.39, 2442.817
282.60, 2648.024
282.82, 2870.023
283.04, 2486.644
283.25, 2487.053
283.47, 2913.031
283.68, 2894.599
283.90, 2553.407
284.11, 2431.348
284.33, 2664.407
284.54, 2779.913
284.76, 2432.168
284.97, 2578.393
285.19, 2815.138
285.40, 3035.090
285.62, 2628.363
285.83, 2434.625
286.05, 2941.293
286.26, 2833.570
286.48, 2535.795
286.69, 2575.525
286.91, 2667.684
287.12, 3253.403
287.33, 2384.245
287.55, 2413.326
287.76, 3000.274
287.98, 2973.241
288.19, 2778.684
288.41, 2293.725
288.62, 2827.426
288.84, 2908.116
289.05, 2310.109
289.27, 2367.861
289.48, 3062.123
289.70, 2647.614
289.91, 2555.865
290.13, 2504.256
290.34, 2963.411
290.56, 2884.769
290.77, 2483.776
290.99, 2424.795
291.20, 2727.894
291.41, 2709.053
291.63, 2453.876
291.84, 2679.562
292.06, 2901.153
292.27, 2761.481
292.49, 2473.537
292.70, 2648.024
292.92, 2913.031
293.13, 2991.263
293.35, 2514.086
293.56, 2491.968
293.77, 2681.610
293.99, 3110.865
294.20, 2416.194
294.42, 2471.898
294.63, 2911.392
294.85, 3132.983
295.06, 2389.160
295.28, 2473.537
295.49, 2533.337
295.70, 3160.016
295.92, 2417.422
296.13, 2620.581
296.35, 3110.045
296.56, 2867.566
296.78, 2359.260
296.99, 2478.452
297.20, 2785.647
297.42, 3018.296
297.63, 2533.337
297.85, 2447.732
298.06, 2709.872
298.28, 2917.946
298.49, 2383.426
298.70, 2482.548
298.92, 3098.577
299.13, 3058.027
299.35, 2565.695
299.56, 2439.131
299.77, 2603.378
299.99, 2785.238
300.20, 2539.481
300.42, 2398.581
300.63, 2865.108
300.85, 3110.045
301.06, 2608.293
301.27, 2461.658
301.49, 2791.791
301.70, 3025.669
301.92, 2481.729
302.13, 2499.751
302.34, 2793.839
302.56, 3090.794
302.77, 2487.872
302.99, 2522.278
303.20, 2874.529
303.41, 2873.710
303.63, 2467.802
303.84, 2443.227
304.05, 2595.186
304.27, 2914.669
304.48, 2562.419
304.70, 2380.559
304.91, 3082.193
305.12, 2908.525
305.34, 2380.968
305.55, 2462.068
305.77, 2641.060
305.98, 2973.651
306.19, 2487.053
306.41, 2565.286
306.62, 2708.234
306.83, 3012.152
307.05, 2462.887
307.26, 2435.854
307.47, 3074.001
307.69, 3112.503
307.90, 2462.478
308.12, 2500.570
308.33, 2809.404
308.54, 3166.160
308.76, 2346.563
308.97, 2491.968
309.18, 2914.260
309.40, 2688.573
309.61, 2555.865
309.82, 2409.230
310.04, 2787.695
310.25, 3035.499
310.46, 2364.585
310.68, 2458.791
310.89, 2883.130
311.11, 2648.024
311.32, 2492.378
311.53, 2443.227
311.75, 2965.049
311.96, 2986.758
312.17, 2521.459
312.39, 2494.426
312.60, 2808.994
312.81, 2999.455
313.03, 2519.002
313.24, 2446.094
313.45, 2802.440
313.67, 2910.983
313.88, 2533.747
314.09, 2477.223
314.31, 2776.636
314.52, 2895.828
314.73, 2482.548
314.95, 2422.337
315.16, 3151.414
315.37, 3003.551
315.58, 2447.323
315.80, 2315.024
316.01, 2626.315
316.22, 2854.459
316.44, 2483.776
316.65, 2655.806
316.86, 2806.127
317.08, 2901.153
317.29, 2580.441
317.50, 2375.644
317.72, 2726.666
317.93, 3070.724
318.14, 2488.692
318.35, 2681.201
318.57, 2759.024
318.78, 3044.510
318.99, 2519.411
319.21, 2335.504
319.42, 3012.562
319.63, 2728.714
319.85, 2312.976
320.06, 2535.795
320.27, 2827.426
320.48, 2486.644
320.70, 2406.363
320.91, 2451.828
321.12, 2918.765
321.34, 2830.293
321.55, 2462.068
321.76, 2464.116
321.97, 2990.854
322.19, 2764.758
322.40, 2582.898
322.61, 2566.105
322.83, 2746.326
323.04, 2801.212
323.25, 2503.027
323.46, 2499.751
323.68, 2915.488
323.89, 2604.607
324.10, 2438.721
324.31, 2535.795
324.53, 2791.791
324.74, 3029.765
324.95, 2471.489
325.16, 2643.518
325.38, 2976.927
325.59, 2945.798
325.80, 2478.861
326.01, 2453.057
326.23, 3053.521
326.44, 2866.747
326.65, 2459.201
326.86, 2668.503
327.08, 2899.105
327.29, 2875.758
327.50, 2455.515
327.71, 2634.917
327.93, 2439.131
328.14, 2696.765
328.35, 2395.304
328.56, 2529.651
328.78, 2909.344
328.99, 3246.030
329.20, 2454.695
329.41, 2562.418
329.63, 2799.983
329.84, 2733.219
330.05, 2480.090
330.26, 2446.503
330.48, 2507.123
330.69, 2677.514
330.90, 2433.396
331.11, 2339.190
331.32, 2692.260
331.54, 2968.736
331.75, 2420.289
331.96, 2512.038
332.17, 3079.326
332.39, 2583.717
332.60, 2426.433
332.81, 2367.042
333.02, 2607.064
333.23, 2575.116
333.45, 2466.574
333.66, 2581.260
333.87, 2805.308
334.08, 2728.304
334.29, 2478.452
334.51, 2526.374
334.72, 2924.909
334.93, 2822.101
335.14, 2513.267
335.35, 2451.828
335.57, 2623.038
335.78, 2811.452
335.99, 2385.064
336.20, 2287.991
336.41, 2614.846
336.63, 2996.997
336.84, 2320.349
337.05, 2625.496
337.26, 3029.765
337.47, 2622.219
337.69, 2494.426
337.90, 2390.799
338.11, 2915.488
338.32, 3155.920
338.53, 2342.876
338.74, 2442.817
338.96, 3026.488
339.17, 3232.514
339.38, 2853.640
339.59, 2536.614
339.80, 2873.300
340.01, 3043.282
340.23, 2581.260
340.44, 2356.802
340.65, 2920.813
340.86, 2862.241
341.07, 2373.186
341.28, 2550.950
341.50, 2944.160
341.71, 2696.356
341.92, 2544.806
342.13, 2337.552
342.34, 2632.049
342.55, 2602.149
342.77, 2432.168
342.98, 2383.016
343.19, 2894.189
343.40, 2893.370
343.61, 2388.341
343.82, 2620.990
344.03, 2516.544
344.25, 3015.839
344.46, 2387.932
344.67, 2568.562
344.88, 2768.854
345.09, 2863.470
345.30, 2470.670
345.51, 2564.057
345.73, 2922.861
345.94, 2863.060
346.15, 2625.496
346.36, 2629.592
346.57, 2896.647
346.78, 2676.695
346.99, 2471.489
347.21, 2661.950
347.42, 2827.426
347.63, 2808.994
347.84, 2565.695
348.05, 2528.013
348.26, 2769.263
348.47, 2576.754
348.68, 2379.740
348.89, 2538.252
349.11, 2856.916
349.32, 2959.724
349.53, 2349.020
349.74, 2666.865
349.95, 2514.906
350.16, 3003.551
350.37, 2325.264
350.58, 2503.847
350.79, 2914.669
351.01, 2953.171
351.22, 2538.662
351.43, 2465.345
351.64, 2894.599
351.85, 2890.094
352.06, 2483.367
352.27, 2480.909
352.48, 2682.429
352.69, 3048.606
352.90, 2586.994
353.12, 2618.942
353.33, 2873.300
353.54, 2736.496
353.75, 2503.027
353.96, 2452.647
354.17, 2730.352
354.38, 2899.105
354.59, 2549.312
354.80, 2505.895
355.01, 2666.865
355.22, 2787.285
355.43, 2396.123
355.64, 2605.426
355.86, 2978.156
356.07, 3035.090
356.28, 2453.057
356.49, 2330.588
356.70, 2784.418
356.91, 3229.647
357.12, 2507.533
357.33, 2528.013
357.54, 2851.592
357.75, 2829.883
357.96, 2370.729
358.17, 2503.437
358.38, 2666.455
358.59, 2906.887
358.80, 2389.160
359.02, 2573.478
359.23, 2570.201
359.44, 3006.418
359.65, 2260.138
359.86, 2538.662
360.07, 2728.304
360.28, 2532.928
360.49, 2412.507
360.70, 2543.987
360.91, 2564.466
361.12, 2880.673
361.33, 2504.666
361.54, 2504.666
361.75, 2952.761
361.96, 2706.186
362.17, 2597.644
362.38, 2483.776
362.59, 2963.820
362.80, 3069.905
363.01, 2393.666
363.22, 2501.799
363.43, 2590.271
363.64, 3001.503
363.85, 2387.112
364.06, 2496.884
364.27, 2661.540
364.48, 2867.156
364.69, 2312.976
364.90, 2506.304
365.11, 2763.119
365.33, 2907.706
365.54, 2412.507
365.75, 2674.238
365.96, 2992.902
366.17, 2761.891
366.38, 2457.153
366.59, 2584.537
366.80, 2608.293
367.01, 3046.558
367.22, 2355.164
367.43, 2474.765
367.64, 2788.514
367.85, 2897.876
368.06, 2350.249
368.27, 2444.865
368.48, 3076.868
368.69, 2562.418
368.90, 2502.618
369.11, 2419.470
369.32, 2970.374
369.53, 2830.293
369.74, 2446.913
369.94, 2490.740
370.15, 2717.245
370.36, 2976.927
370.57, 2443.636
370.78, 2550.540
370.99, 2760.252
371.20, 3043.691
371.41, 2499.341
371.62, 2613.208
371.83, 2731.581
372.04, 2719.703
372.25, 2432.577
372.46, 2560.371
372.67, 2759.843
372.88, 3131.754
373.09, 2347.791
373.30, 2514.496
373.51, 2807.356
373.72, 2908.935
373.93, 2508.762
374.14, 2398.171
374.35, 2841.352
374.56, 3146.499
374.77, 2600.101
374.98, 2285.943
375.19, 3035.499
375.40, 2953.990
375.61, 2376.053
375.82, 2617.304
376.03, 2790.562
376.23, 2897.466
376.44, 2419.470
376.65, 2518.182
376.86, 2653.348
377.07, 2992.492
377.28, 2573.887
377.49, 2423.157
377.70, 3113.322
377.91, 2804.079
378.12, 2362.946
378.33, 2404.315
378.54, 2591.500
378.75, 3124.381
378.96, 2428.072
379.17, 2422.747
379.37, 2788.105
379.58, 2684.477
379.79, 2312.566
380.00, 2426.024
380.21, 2624.267
380.42, 2929.824
380.63, 2426.843
380.84, 2409.640
381.05, 2783.599
381.26, 3039.595
381.47, 2515.315
381.68, 2600.920
381.89, 2963.001
382.09, 2827.016
382.30, 2693.898
382.51, 2596.415
382.72, 2998.636
382.93, 2702.090
383.14, 2380.149
383.35, 2518.182
383.56, 2808.994
383.77, 2817.595
383.98, 2444.046
384.18, 2557.913
384.39, 2959.315
384.60, 2920.813
384.81, 2371.548
385.02, 2412.507
385.23, 2694.717
385.44, 2754.928
385.65, 2362.127
385.86, 2537.024
386.06, 2684.068
386.27, 3125.610
386.48, 2524.326
386.69, 2608.293
386.90, 2650.891
387.11, 2728.714
387.32, 2465.345
387.53, 2452.238
387.73, 2710.691
387.94, 3078.916
388.15, 2573.068
388.36, 2501.799
388.57, 3107.178
388.78, 2976.518
388.99, 2573.068
389.20, 2381.378
389.40, 3677.333
389.61, 2713.559
389.82, 2485.005
390.03, 2338.371
390.24, 2944.569
390.45, 2818.824
390.66, 2528.422
390.86, 2422.337
391.07, 2613.208
391.28, 2581.260
391.49, 2308.880
391.70, 2415.784
391.91, 2578.393
392.12, 3229.647
392.32, 2380.149
392.53, 2440.360
392.74, 2835.208
392.95, 2918.765
393.16, 2408.821
393.37, 2471.079
393.57, 2872.071
393.78, 2547.264
393.99, 2563.647
394.20, 2491.149
394.41, 2904.020
394.62, 2781.142
394.82, 2456.743
395.03, 2423.157
395.24, 2815.957
395.45, 2796.297
395.66, 2429.710
395.87, 2503.027
396.07, 3068.676
396.28, 2895.418
396.49, 2485.824
396.70, 2403.906
396.91, 2676.695
397.11, 2834.389
397.32, 2312.566
397.53, 2327.721
397.74, 2669.732
397.95, 2819.234
398.16, 2462.887
398.36, 2691.441
398.57, 2773.769
398.78, 2732.400
398.99, 2602.968
399.20, 2335.913
399.40, 2539.481
399.61, 3006.828
399.82, 2434.625
400.03, 2414.965
400.24, 3015.429
400.44, 2589.042
400.65, 2503.437
400.86, 2500.160
401.07, 2636.555
401.27, 2907.706
401.48, 2496.064
401.69, 2392.028
401.90, 2972.831
402.11, 2731.990
402.31, 2443.227
402.52, 2490.740
402.73, 2557.913
402.94, 2591.909
403.15, 2540.710
403.35, 2319.939
403.56, 3103.901
403.77, 2698.813
403.98, 2531.289
404.18, 2385.474
404.39, 2819.234
404.60, 2746.736
404.81, 2541.529
405.01, 2319.939
405.22, 2593.138
405.43, 2955.219
405.64, 2483.776
405.85, 2521.459
406.05, 3154.691
406.26, 2971.603
406.47, 2659.492
406.68, 2505.485
406.88, 3143.222
407.09, 2751.241
407.30, 2355.574
407.51, 2324.445
407.71, 2956.448
407.92, 2615.666
408.13, 2271.197
408.34, 2429.301
408.54, 2495.655
408.75, 2518.182
408.96, 2488.692
409.16, 2566.924
409.37, 2750.422
409.58, 3040.005
409.79, 2539.072
409.99, 2477.633
410.20, 3036.728
410.41, 2682.429
410.62, 2474.765
410.82, 2432.577
411.03, 3019.935
411.24, 2645.566
411.45, 2463.297
411.65, 2519.821
411.86, 2787.285
412.07, 2629.592
412.27, 2587.813
412.48, 2497.293
412.69, 2795.477
412.90, 3017.887
413.10, 2523.098
413.31, 2482.548
413.52, 2780.322
413.72, 2481.319
413.93, 2294.954
414.14, 2329.769
414.35, 2864.699
414.55, 2858.555
414.76, 2476.813
414.97, 2404.315
415.17, 2701.271
415.38, 2984.300
415.59, 2455.515
415.79, 2372.777
416.00, 3091.204
416.21, 3073.182
416.41, 2353.935
416.62, 2347.382
416.83, 3068.676
417.04, 3064.580
417.24, 2444.046
417.45, 2557.913
417.66, 2905.248
417.86, 2660.721
418.07, 2405.134
418.28, 2477.223
418.48, 3149.366
418.69, 2734.448
418.90, 2580.031
419.10, 2457.562
419.31, 2734.448
419.52, 2559.142
419.72, 2493.607
419.93, 2383.426
420.14, 2962.182
420.34, 3012.972
420.55, 2468.622
420.76, 2616.894
420.96, 2602.968
421.17, 2789.333
421.38, 2500.160
421.58, 2514.086
421.79, 2978.566
422.00, 2795.887
422.20, 2460.430
422.41, 2354.754
422.62, 2571.839
422.82, 3000.274
423.03, 2616.485
423.24, 2577.983
423.44, 2512.448
423.65, 2791.791
423.85, 2359.670
424.06, 2588.223
424.27, 2987.167
424.47, 2875.758
424.68, 2949.075
424.89, 2696.765
425.09, 3023.211
425.30, 2878.625
425.51, 2463.706
425.71, 2539.072
425.92, 2844.629
426.12, 3198.108
426.33, 2394.895
426.54, 2360.079
426.74, 2917.127
426.95, 2734.038
427.16, 2357.622
427.36, 2343.695
427.57, 2846.267
427.77, 2970.783
427.98, 2625.086
428.19, 2491.559
428.39, 2684.887
428.60, 2917.127
428.81, 2423.566
429.01, 2449.780
429.22, 2902.381
429.42, 2724.208
429.63, 2687.754
429.84, 2631.640
430.04, 2553.407
430.25, 3081.783
430.45, 2446.503
430.66, 2357.622
430.87, 2576.754
431.07, 2716.426
431.28, 2478.452
431.48, 2330.998
431.69, 2737.725
431.90, 2707.824
432.10, 2594.776
432.31, 2388.341
432.51, 2704.548
432.72, 2952.352
432.92, 2382.197
433.13, 2503.847
433.34, 2915.898
433.54, 2878.215
433.75, 2485.824
433.95, 2615.666
434.16, 2996.997
434.37, 2642.289
434.57, 2559.551
434.78, 2566.514
434.98, 2623.448
435.19, 2781.142
435.39, 2453.876
435.60, 2514.496
435.81, 3017.477
436.01, 2552.998
436.22, 2482.957
436.42, 2525.555
436.63, 2704.548
436.83, 2958.496
437.04, 2548.083
437.24, 2508.762
437.45, 2721.341
437.66, 2806.127
437.86, 2450.190
438.07, 2374.415
438.27, 2753.289
438.48, 2876.167
438.68, 2580.850
438.89, 2482.548
439.09, 2930.234
439.30, 2688.983
439.50, 2516.544
439.71, 2457.153
439.92, 2811.861
440.12, 2675.466
440.33, 2382.197
440.53, 2572.249
440.74, 2580.031
440.94, 2960.134
441.15, 2673.828
441.35, 2403.087
441.56, 2871.252
441.76, 2805.717
441.97, 2399.810
442.17, 2466.574
442.38, 2832.341
442.58, 2909.754
442.79, 2438.721
443.00, 2464.935
443.20, 2760.662
443.41, 2815.957
443.61, 2409.640
443.82, 2565.286
444.02, 2705.367
444.23, 2458.791
444.43, 2560.371
444.64, 2641.470
444.84, 2955.628
445.05, 2609.522
445.25, 2542.758
445.46, 2447.323
445.66, 2634.507
445.87, 2686.525
446.07, 2426.843
446.28, 2510.400
446.48, 2842.171
446.69, 2607.064
446.89, 2521.050
447.10, 2519.411
447.30, 2989.215
447.51, 2838.485
447.71, 2634.507
447.92, 2448.142
448.12, 2732.400
448.33, 2814.319
448.53, 2422.337
448.73, 2603.787
448.94, 3224.322
449.14, 2691.031
449.35, 2549.312
449.55, 2457.562
449.76, 2971.193
449.96, 2927.776
450.17, 2514.086
450.37, 2481.729
450.58, 3176.400
450.78, 2652.939
450.99, 2367.042
451.19, 2670.961
451.40, 2705.367
451.60, 2678.743
451.81, 2381.788
452.01, 2443.636
452.21, 2933.101
452.42, 2772.540
452.62, 2394.485
452.83, 2486.234
453.03, 2960.544
453.24, 2897.057
453.44, 2645.156
453.65, 2442.817
453.85, 3274.292
454.06, 2915.898
454.26, 2489.920
454.46, 2632.869
454.67, 2989.215
454.87, 2795.477
455.08, 2640.241
455.28, 2593.957
455.49, 2796.706
455.69, 3198.927
455.89, 2585.765
456.10, 2365.813
456.30, 3246.440
456.51, 2842.990
456.71, 2444.865
456.92, 2511.219
457.12, 2947.437
457.32, 2694.717
457.53, 2704.548
457.73, 2528.422
457.94, 3032.632
458.14, 2642.289
458.35, 2372.777
458.55, 2456.334
458.75, 3039.595
458.96, 3021.164
459.16, 2247.031
459.37, 2531.699
459.57, 2553.817
459.77, 2933.920
459.98, 2488.282
460.18, 2538.662
460.39, 2971.193
460.59, 2639.832
460.79, 2310.518
461.00, 2466.164
461.20, 2835.208
461.41, 2995.769
461.61, 2439.540
461.81, 2582.898
462.02, 2815.547
462.22, 3022.802
462.43, 2478.861
462.63, 2394.485
462.83, 3067.448
463.04, 2915.079
463.24, 2466.574
463.45, 2422.747
463.65, 2673.828
463.85, 2928.186
464.06, 2330.179
464.26, 2752.470
464.46, 2719.293
464.67, 2980.204
464.87, 2497.703
465.08, 2477.633
465.28, 2833.160
465.48, 2743.459
465.69, 2419.880
465.89, 2501.389
466.09, 3171.075
466.30, 3028.127
466.50, 2431.348
466.71, 2453.467
466.91, 3035.909
467.11, 2998.636
467.32, 2571.020
467.52, 2497.703
467.72, 2659.492
467.93, 2648.433
468.13, 2577.164
468.33, 2340.828
468.54, 2797.525
468.74, 3250.946
468.94, 2623.038
469.15, 2546.854
469.35, 2634.507
469.55, 2735.267
469.76, 2499.341
469.96, 2519.002
470.17, 2964.640
470.37, 3093.662
470.57, 2499.341
470.78, 2476.404
470.98, 2964.640
471.18, 2987.986
471.39, 2508.762
471.59, 2729.533
471.79, 2693.898
471.99, 2546.035
472.20, 2487.463
472.40, 2467.393
472.60, 2606.245
472.81, 2801.621
473.01, 2555.455
473.21, 2506.304
473.42, 3197.698
473.62, 3061.304
473.82, 2538.252
474.03, 2859.374
474.23, 2667.275
474.43, 2992.492
474.64, 2329.360
474.84, 2578.393
475.04, 2807.765
475.25, 2867.975
475.45, 2358.031
475.65, 2503.027
475.85, 2550.131
476.06, 2929.005
476.26, 2618.942
476.46, 2484.596
476.67, 2783.599
476.87, 2888.455
477.07, 2396.533
477.28, 2492.788
477.48, 2929.824
477.68, 3049.425
477.88, 2256.042
478.09, 2512.858
478.29, 2757.385
478.49, 3048.197
478.70, 2419.880
478.90, 2570.201
479.10, 2677.105
479.30, 3026.488
479.51, 2438.312
479.71, 2358.441
479.91, 2897.466
480.11, 2952.352
480.32, 2600.101
480.52, 2580.441
480.72, 2760.662
480.93, 2652.529
481.13, 2257.681
481.33, 2416.603
481.53, 3040.005
481.74, 2840.942
481.94, 2365.814
482.14, 2515.725
482.34, 2756.976
482.55, 2838.485
482.75, 2606.245
482.95, 2443.636
483.15, 2848.315
483.36, 2505.895
483.56, 2673.418
483.76, 2405.544
483.96, 2804.488
484.17, 2919.584
484.37, 2476.813
484.57, 2528.422
484.77, 2779.503
484.98, 3101.444
485.18, 2492.788
485.38, 2546.035
485.58, 2757.795
485.79, 2997.407
485.99, 2288.400
486.19, 2573.887
486.39, 3096.938
486.59, 2547.673
486.80, 2578.393
487.00, 2488.692
487.20, 2927.367
487.40, 2802.850
487.61, 2518.182
487.81, 2394.485
488.01, 3018.706
488.21, 2813.499
488.41, 2577.573
488.62, 2565.286
488.82, 2680.382
489.02, 2711.101
489.22, 2486.234
489.43, 2504.256
489.63, 3026.079
489.83, 2634.917
490.03, 2431.348
490.23, 2360.489
490.44, 2570.610
490.64, 2886.407
490.84, 2520.230
491.04, 2557.913
491.24, 2776.636
491.45, 3096.938
491.65, 2697.175
491.85, 2507.533
492.05, 3374.643
492.25, 2915.488
492.45, 2612.389
492.66, 2439.950
492.86, 2697.175
493.06, 2910.573
493.26, 2688.164
493.46, 2536.204
493.67, 3340.647
493.87, 2577.164
494.07, 2666.046
494.27, 2440.769
494.47, 2661.540
494.67, 2901.972
494.88, 2505.485
495.08, 2488.692
495.28, 2773.769
495.48, 2789.333
495.68, 2434.216
495.89, 2451.828
496.09, 2543.168
496.29, 2818.415
496.49, 2614.027
496.69, 2507.533
496.89, 2507.123
497.09, 2844.629
497.30, 2494.016
497.50, 2503.847
497.70, 2872.481
497.90, 3176.400
498.10, 2580.850
498.30, 2912.212
498.51, 2834.389
498.71, 2799.573
498.91, 2294.954
499.11, 2602.149
499.31, 2949.894
499.51, 2961.363
499.71, 2426.433
499.92, 2522.688
500.12, 2873.300
500.32, 2780.732
500.52, 2673.418
500.72, 2319.939
500.92, 3064.580
501.12, 2926.138
501.32, 2224.504
501.53, 2435.444
501.73, 2917.127
501.93, 2871.662
502.13, 2333.046
502.33, 2255.633
502.53, 2748.374
502.73, 2877.806
502.93, 2286.352
503.14, 2533.747
503.34, 2703.319
503.54, 2800.802
503.74, 2490.740
503.94, 2420.289
504.14, 2907.706
504.34, 2851.592
504.54, 2456.743
504.74, 2468.212
504.95, 2882.721
505.15, 3064.580
505.35, 2391.208
505.55, 2425.614
505.75, 2785.647
505.95, 2821.691
506.15, 2546.035
506.35, 2480.909
506.55, 2770.902
506.75, 2859.374
506.95, 2496.474
507.16, 2621.810
507.36, 2921.632
507.56, 3012.152
507.76, 2454.286
507.96, 2600.101
508.16, 2608.293
508.36, 2826.197
508.56, 2502.618
508.76, 2501.799
508.96, 2838.485
509.16, 3241.935
509.36, 2446.913
509.57, 2644.337
509.77, 2748.374
509.97, 2749.603
510.17, 2528.832
510.37, 2494.836
510.57, 2590.680
510.77, 2593.138
510.97, 2534.157
511.17, 2412.098
511.37, 2979.385
511.57, 2991.263
511.77, 2502.618
511.97, 2432.168
512.17, 3019.116
512.37, 3017.477
512.57, 2445.684
512.78, 2541.939
512.98, 2703.728
513.18, 2487.463
513.38, 2432.577
513.58, 2531.289
513.78, 2968.326
513.98, 2845.038
514.18, 2663.179
514.38, 2336.732
514.58, 2310.928
514.78, 2665.636
514.98, 2560.371
515.18, 2552.588
515.38, 2734.038
515.58, 2671.780
515.78, 2396.943
515.98, 2563.238
516.18, 2888.865
516.38, 3032.632
516.58, 2499.751
516.78, 2327.312
516.98, 2542.348
517.18, 2794.658
517.38, 2478.042
517.58, 2499.341
517.78, 2637.784
517.98, 3052.293
518.18, 2489.920
518.38, 2454.695
518.58, 3145.270
518.78, 2707.415
518.98, 2611.979
519.18, 2474.356
519.38, 2858.145
519.58, 2781.961
519.78, 2474.765
519.98, 2571.430
520.18, 2827.835
520.38, 2771.721
520.58, 2580.031
520.78, 2491.968
520.98, 2773.769
521.18, 2954.400
521.38, 2542.348
521.58, 2600.511
521.78, 2966.278
521.98, 2826.606
522.18, 2459.201
522.38, 2634.917
522.58, 2441.179
522.78, 2833.160
522.98, 2653.348
523.18, 2455.515
523.38, 2740.182
523.58, 2655.396
523.78, 2340.828
523.98, 2485.824
524.18, 2784.418
524.38, 2744.688
524.58, 2436.673
524.78, 2505.485
524.98, 2840.942
525.18, 2685.297
525.38, 2587.813
525.58, 2627.134
525.78, 2917.946
525.98, 2838.894
526.18, 2493.197
526.38, 2418.242
526.58, 2760.662
526.78, 2659.083
526.98, 2712.739
527.17, 2283.485
527.37, 2701.680
527.57, 2653.348
527.77, 2394.895
527.97, 2473.946
528.17, 2512.858
528.37, 2833.979
528.57, 2522.278
528.77, 2446.503
528.97, 3087.108
529.17, 2889.684
529.37, 2564.057
529.57, 2480.909
529.77, 2766.806
529.97, 3001.503
530.17, 2689.802
530.36, 2546.035
530.56, 2924.499
530.76, 2589.452
530.96, 2641.060
531.16, 2450.599
531.36, 2953.990
531.56, 3004.370
531.76, 2410.869
531.96, 2408.821
532.16, 2781.551
532.36, 2736.086
532.56, 2408.002
532.76, 2537.843
532.95, 2727.485
533.15, 2817.186
533.35, 2608.293
533.55, 2460.839
533.75, 3046.149
533.95, 2794.249
534.15, 2451.419
534.35, 2602.559
534.55, 2948.256
534.75, 2754.518
534.94, 2354.345
535.14, 2498.112
535.34, 2756.156
535.54, 2744.278
535.74, 2667.274
535.94, 2425.205
536.14, 2768.854
536.34, 3205.481
536.54, 2669.322
536.73, 2497.703
536.93, 2787.695
537.13, 3162.883
537.33, 2713.968
537.53, 2469.031
537.73, 2693.079
537.93, 2706.596
538.13, 2741.001
538.32, 2653.758
538.52, 2565.695
538.72, 2661.950
538.92, 2685.706
539.12, 2438.721
539.32, 3019.525
539.52, 2936.378
539.72, 2571.430
539.91, 2376.873
540.11, 2673.828
540.31, 2742.640
540.51, 2406.773
540.71, 2626.725
540.91, 3181.315
541.11, 2618.123
541.30, 2362.127
541.50, 2338.371
541.70, 2584.537
541.90, 2747.964
542.10, 2296.592
542.30, 2482.138
542.49, 2872.891
542.69, 2727.485
542.89, 2303.555
543.09, 2475.994
543.29, 3033.042
543.49, 3065.809
543.68, 2640.241
543.88, 2534.157
544.08, 2937.197
544.28, 2772.130
544.48, 2670.142
544.68, 2409.640
544.87, 2984.300
545.07, 2865.518
545.27, 2456.743
545.47, 2449.371
545.67, 2744.278
545.87, 2795.887
546.06, 2378.101
546.26, 2416.194
546.46, 2725.027
546.66, 2736.086
546.86, 2912.621
547.05, 2403.906
547.25, 2969.145
547.45, 3271.425
547.65, 2452.238
547.85, 2306.422
548.04, 3044.101
548.24, 2978.975
548.44, 2596.415
548.64, 2583.308
548.84, 3128.477
549.03, 2599.282
549.23, 2429.710
549.43, 2545.216
549.63, 2716.016
549.83, 2873.710
550.02, 2487.463
550.22, 2487.053
550.42, 2797.525
550.62, 2936.787
550.82, 2288.400
551.01, 2508.762
551.21, 2751.241
551.41, 3242.344
551.61, 2387.932
551.80, 2547.673
552.00, 2741.411
552.20, 2881.082
552.40, 2360.489
552.60, 2552.998
552.79, 2930.234
552.99, 2837.666
553.19, 2596.415
553.39, 2362.127
553.58, 2839.713
553.78, 2526.374
553.98, 2689.393
554.18, 2379.740
554.37, 2540.300
554.57, 2833.979
554.77, 2604.607
554.97, 2584.537
555.16, 3027.717
555.36, 3311.156
555.56, 2446.094
555.76, 2472.717
555.95, 3308.698
556.15, 2799.164
556.35, 2588.223
556.55, 2584.946
556.74, 2516.954
556.94, 2727.485
557.14, 2353.935
557.34, 2514.086
557.53, 2804.488
557.73, 2824.968
557.93, 2476.813
558.13, 2421.518
558.32, 2749.603
558.52, 2794.658
558.72, 2345.743
558.92, 2515.725
559.11, 2873.710
559.31, 2865.108
559.51, 2587.404
559.70, 2500.570
559.90, 2779.094
560.10, 2626.725
560.30, 2385.884
560.49, 2597.234
560.69, 2710.691
560.89, 3043.282
561.08, 2351.478
561.28, 2434.625
561.48, 2747.964
561.68, 2890.913
561.87, 2489.511
562.07, 2476.404
562.27, 2598.872
562.46, 2841.352
562.66, 2460.430
562.86, 2435.035
563.05, 2717.245
563.25, 2573.478
563.45, 2308.470
563.65, 2760.662
563.84, 2980.614
564.04, 2736.496
564.24, 2494.836
564.43, 2435.854
564.63, 2935.558
564.83, 2824.558
565.02, 2433.806
565.22, 2481.319
565.42, 2627.954
565.61, 2831.931
565.81, 2455.105
566.01, 2644.337
566.20, 2791.381
566.40, 2540.300
566.60, 2472.717
566.79, 2386.703
566.99, 2987.577
567.19, 2756.156
567.38, 2593.548
567.58, 2440.360
567.78, 2742.230
567.97, 2605.426
568.17, 2250.718
568.37, 2482.957
568.56, 3051.883
568.76, 2701.271
568.96, 2518.182
569.15, 2571.839
569.35, 4226.188
569.55, 3084.241
569.74, 2444.046
569.94, 2618.533
570.14, 2883.540
570.33, 2803.669
570.53, 2324.854
570.73, 2401.448
570.92, 2569.382
571.12, 2802.850
571.31, 2222.046
571.51, 2466.983
571.71, 2775.407
571.90, 3036.318
572.10, 2357.212
572.30, 2398.171
572.49, 3046.558
572.69, 2958.086
572.88, 2503.437
573.08, 2292.087
573.28, 3179.267
573.47, 2829.883
573.67, 2320.758
573.87, 2434.216
574.06, 2734.038
574.26, 2906.068
574.45, 2379.740
574.65, 2348.611
574.85, 2982.662
575.04, 2752.470
575.24, 2620.990
575.44, 2347.382
575.63, 2844.219
575.83, 2502.208
576.02, 2436.673
576.22, 2432.168
576.42, 2940.474
576.61, 2764.348
576.81, 2364.175
577.00, 2608.293
577.20, 2867.566
577.40, 2848.725
577.59, 2281.028
577.79, 2525.555
577.98, 2798.754
578.18, 2677.514
578.37, 2532.928
578.57, 2309.290
578.77, 2553.817
578.96, 2531.699
579.16, 2285.533
579.35, 2288.810
579.55, 2596.824
579.75, 2526.374
579.94, 2407.592
580.14, 2343.286
580.33, 3165.341
580.53, 2733.629
580.72, 2396.123
580.92, 2539.481
581.12, 2750.012
581.31, 2744.278
581.51, 2541.529
581.70, 2471.489
581.90, 3386.112
582.09, 2559.551
582.29, 2288.400
582.48, 2404.725
582.68, 2836.027
582.88, 3012.152
583.07, 2358.031
583.27, 2256.862
583.46, 2860.193
583.66, 3080.555
583.85, 2540.300
584.05, 2511.219
584.24, 3222.684
584.44, 2966.688
584.63, 2386.703
584.83, 2351.068
585.03, 2934.330
585.22, 2654.987
585.42, 2241.297
585.61, 2410.869
585.81, 2697.584
586.00, 2780.322
586.20, 2378.511
586.39, 2413.326
586.59, 2613.208
586.78, 2598.463
586.98, 2484.596
587.17, 2523.507
587.37, 2912.212
587.56, 3089.975
587.76, 2455.515
587.95, 2463.297
588.15, 2697.175
588.34, 2934.739
588.54, 2388.341
588.74, 2496.884
588.93, 2503.847
589.13, 2912.212
589.32, 2367.452
589.52, 2231.876
589.71, 3014.610
589.91, 2851.592
590.10, 2289.219
590.30, 2453.876
590.49, 2765.167
590.69, 2925.319
590.88, 2340.009
591.08, 2325.264
591.27, 2803.260
591.47, 2514.496
591.66, 2394.485
591.85, 2349.430
592.05, 2881.492
592.24, 3055.569
592.44, 2317.072
592.63, 2251.127
592.83, 2838.894
593.02, 2768.035
593.22, 2297.411
593.41, 2186.821
593.61, 2699.632
593.80, 3366.861
594.00, 2299.459
594.19, 2382.197
594.39, 2781.551
594.58, 2575.526
594.78, 2357.212
594.97, 2493.607
595.17, 2748.784
595.36, 2867.566
595.56, 2374.415
595.75, 2397.352
595.94, 2884.359
596.14, 2991.263
596.33, 2425.205
596.53, 2242.526
596.72, 2759.024
596.92, 2804.079
597.11, 2379.330
597.31, 2566.924
597.50, 2904.839
597.69, 3076.459
597.89, 2468.212
598.08, 2328.131
598.28, 2943.341
598.47, 2818.824
598.67, 2413.736
598.86, 2464.116
599.06, 2974.879
599.25, 2724.208
599.44, 2487.872
599.64, 2472.717
599.83, 2746.326
600.03, 2705.776
600.22, 2281.028
600.42, 2518.592
600.61, 2692.260
600.80, 2623.448
601.00, 2506.714
601.19, 2387.522
601.39, 2971.193
601.58, 2700.861
601.78, 2446.913
601.97, 2431.348
602.16, 2863.060
602.36, 2679.153
602.55, 2454.286
602.75, 2318.710
602.94, 2955.628
603.13, 3017.068
603.33, 2294.954
603.52, 2356.393
603.72, 2940.064
603.91, 2634.097
604.10, 2383.836
604.30, 2421.928
604.49, 2762.710
604.69, 2818.824
604.88, 2215.902
605.07, 2457.972
605.27, 2752.470
605.46, 2542.758
605.66, 2503.027
605.85, 2393.256
606.04, 2865.518
606.24, 2923.680
606.43, 2177.810
606.62, 2399.400
606.82, 2663.998
607.01, 2846.267
607.21, 2316.253
607.40, 2517.773
607.59, 2802.440
607.79, 2592.728
607.98, 2503.847
608.17, 2246.622
608.37, 2858.145
608.56, 3266.510
608.76, 2181.087
608.95, 2306.832
609.14, 3092.433
609.34, 2737.315
609.53, 2378.920
609.72, 2298.231
609.92, 2677.105
610.11, 2793.839
610.30, 2340.009
610.50, 2368.681
610.69, 2455.924
610.88, 2867.156
611.08, 2377.282
611.27, 2268.740
611.46, 2939.654
611.66, 2654.987
611.85, 2199.109
612.04, 2424.795
612.24, 2955.219
612.43, 2699.223
612.62, 2263.415
612.82, 2419.880
613.01, 2671.370
613.20, 2849.953
613.40, 2372.367
613.59, 2299.869
613.78, 2822.920
613.98, 2437.083
614.17, 2347.791
614.36, 2367.861
614.56, 3641.698
614.75, 2654.577
614.94, 2350.659
615.14, 2351.887
615.33, 3025.669
615.52, 3010.924
615.72, 2272.836
615.91, 2454.695
616.10, 2813.909
616.30, 2834.798
616.49, 2448.961
616.68, 2369.909
616.88, 3158.377
617.07, 3104.311
617.26, 2261.777
617.45, 2441.588
617.65, 3215.311
617.84, 2487.463
618.03, 2257.681
618.23, 2411.688
618.42, 2848.725
618.61, 2632.049
618.80, 2350.659
619.00, 2314.614
619.19, 2986.348
619.38, 2810.632
619.58, 2346.972
619.77, 2385.884
619.96, 3048.197
620.15, 2684.887
620.35, 2555.865
620.54, 2376.053
620.73, 2714.787
620.93, 2905.658
621.12, 2281.847
621.31, 2446.503
621.50, 2610.751
621.70, 3289.447
621.89, 2260.958
622.08, 2170.028
622.27, 2847.086
622.47, 2993.721
622.66, 2276.522
622.85, 2427.662
623.04, 2809.813
623.24, 2673.418
623.43, 2408.821
623.62, 2392.437
623.81, 2810.632
624.01, 2917.536
624.20, 2283.485
624.39, 2513.677
624.58, 2620.990
624.78, 2829.064
624.97, 2312.157
625.16, 2368.271
625.35, 2816.367
625.55, 2848.725
625.74, 2409.230
625.93, 2419.470
626.12, 2696.356
626.32, 2597.644
626.51, 2298.231
626.70, 2350.249
626.89, 2725.846
627.09, 2735.677
627.28, 2338.780
627.47, 2421.518
627.66, 3018.296
627.85, 2871.252
628.05, 2297.821
628.24, 2346.563
628.43, 2949.485
628.62, 2974.470
628.82, 2341.238
629.01, 2539.481
629.20, 2852.001
629.39, 2874.939
629.58, 2216.721
629.78, 2397.352
629.97, 2688.573
630.16, 2698.813
630.35, 2339.190
630.54, 2395.714
630.74, 2566.105
630.93, 2614.437
631.12, 2328.131
631.31, 2261.777
631.50, 2865.108
631.70, 2992.082
631.89, 2240.887
632.08, 2463.706
632.27, 2497.293
632.46, 2958.905
632.65, 2461.658
632.85, 2274.064
633.04, 2781.142
633.23, 2956.038
633.42, 2367.452
633.61, 2351.478
633.81, 2849.134
634.00, 2741.001
634.19, 2426.024
634.38, 2411.278
634.57, 2705.367
634.76, 2580.031
634.96, 2279.389
635.15, 2350.249
635.34, 2967.916
635.53, 3019.935
635.72, 2431.348
635.91, 2190.098
636.11, 2880.673
636.30, 2896.237
636.49, 2422.337
636.68, 2321.168
636.87, 2546.854
637.06, 3254.632
637.26, 2352.297
637.45, 2329.769
637.64, 2695.127
637.83, 2787.695
638.02, 2294.135
638.21, 2454.286
638.40, 3117.008
638.60, 3147.728
638.79, 2477.633
638.98, 2246.622
639.17, 2877.806
639.36, 2562.418
639.55, 2425.205
639.74, 2375.644
639.93, 2724.618
640.13, 2862.651
640.32, 2322.806
640.51, 2342.467
640.70, 2970.783
640.89, 2839.304
641.08, 2408.821
641.27, 2324.035
641.46, 2885.998
641.66, 2953.581
641.85, 2323.625
642.04, 2328.540
642.23, 3022.392
642.42, 2697.584
642.61, 2379.740
642.80, 2269.149
642.99, 2701.680
643.18, 3003.961
643.38, 2405.544
643.57, 2398.171
643.76, 2603.787
643.95, 3027.717
644.14, 2430.939
644.33, 2446.094
644.52, 3020.754
644.71, 2688.164
644.90, 2358.031
645.09, 2287.581
645.29, 2870.433
645.48, 2787.695
645.67, 2517.773
645.86, 2498.112
646.05, 2896.237
646.24, 3082.193
646.43, 2230.648
646.62, 2395.714
646.81, 2655.806
647.00, 2609.931
647.19, 2263.825
647.38, 2393.666
647.57, 2813.909
647.77, 2863.060
647.96, 2374.825
648.15, 2281.437
648.34, 2942.112
648.53, 3065.809
648.72, 2340.009
648.91, 2575.935
649.10, 2952.352
649.29, 2418.651
649.48, 2293.725
649.67, 2376.873
649.86, 3112.503
650.05, 2482.548
650.24, 2384.655
650.43, 2572.249
650.62, 2820.872
650.81, 3097.348
651.01, 2300.688
651.20, 2373.596
651.39, 2908.116
651.58, 3033.451
651.77, 2283.076
651.96, 2432.987
652.15, 2876.167
652.34, 2705.367
652.53, 2455.924
652.72, 2431.758
652.91, 2962.592
653.10, 2904.839
653.29, 2355.164
653.48, 2316.662
653.67, 2912.212
653.86, 2738.134
654.05, 2318.710
654.24, 2347.382
654.43, 2745.507
654.62, 2701.271
654.81, 2321.987
655.00, 2370.319
655.19, 2749.603
655.38, 2968.326
655.57, 2299.459
655.76, 2476.813
655.95, 2799.983
656.14, 2562.828
656.33, 2372.367
656.52, 2387.522
656.71, 2637.784
656.90, 2767.215
657.09, 2328.131
657.28, 2308.470
657.47, 2857.736
657.66, 2890.503
657.85, 2291.267
658.04, 2408.411
658.23, 2538.252
658.42, 2907.296
658.61, 2356.802
658.80, 2268.330
658.99, 2803.669
659.18, 3245.211
659.37, 2261.777
659.56, 2395.304
659.75, 2763.939
659.94, 2705.367
660.13, 2212.216
660.32, 2457.153
660.51, 2821.282
660.70, 2739.363
660.89, 2496.064
661.08, 2268.330
661.27, 2893.370
661.46, 2763.939
661.65, 2353.116
661.84, 2441.179
662.03, 2788.924
662.22, 2945.389
662.41, 2290.448
662.60, 2253.175
662.78, 2731.990
662.97, 2939.654
663.16, 2316.662
663.35, 2358.850
663.54, 2784.009
663.73, 3004.370
663.92, 2384.655
664.11, 2336.323
664.30, 2704.548
664.49, 2956.857
664.68, 2364.175
664.87, 2362.537
665.06, 2786.057
665.25, 2744.278
665.44, 2322.806
665.63, 2317.072
665.82, 2784.828
666.01, 3193.193
666.19, 2301.507
666.38, 2426.843
666.57, 3144.042
666.76, 2716.016
666.95, 2463.297
667.14, 2274.064
667.33, 2685.297
667.52, 3079.326
667.71, 2406.363
667.90, 2589.452
668.09, 3049.016
668.28, 2659.902
668.46, 2309.699
668.65, 2470.260
668.84, 3160.425
669.03, 2571.020
669.22, 2246.622
669.41, 2439.950
669.60, 3183.363
669.79, 2575.525
669.98, 2451.009
670.17, 2286.352
670.35, 2829.883
670.54, 2741.001
670.73, 2330.179
670.92, 2413.326
671.11, 2862.651
671.30, 2445.684
671.49, 2367.452
671.68, 2295.363
671.87, 2933.101
672.05, 2955.628
672.24, 2278.160
672.43, 2446.094
672.62, 2647.204
672.81, 2945.389
673.00, 2386.293
673.19, 2257.271
673.38, 2717.245
673.57, 2713.149
673.75, 2496.064
673.94, 2363.356
674.13, 2803.669
674.32, 2689.802
674.51, 2373.596
674.70, 2373.596
674.89, 2441.179
675.07, 2847.496
675.26, 2599.282
675.45, 2431.348
675.64, 2949.075
675.83, 2915.079
676.02, 2485.824
676.21, 2639.832
676.39, 2841.761
676.58, 2535.385
676.77, 2137.260
676.96, 2326.902
677.15, 2738.134
677.34, 3094.481
677.52, 2378.511
677.71, 2353.935
677.90, 2767.625
678.09, 2879.854
678.28, 2327.721
678.47, 2488.282
678.65, 2821.691
678.84, 3068.676
679.03, 2315.433
679.22, 2322.806
679.41, 2648.024
679.60, 2639.013
679.78, 2467.393
679.97, 2387.932
680.16, 2994.130
680.35, 2895.418
680.54, 2599.282
680.73, 2286.352
680.91, 2755.747
681.10, 2935.558
681.29, 2434.216
681.48, 2423.976
681.67, 2945.389
681.85, 2686.935
682.04, 2374.005
682.23, 2357.212
682.42, 2652.939
682.61, 2509.990
682.79, 2387.522
682.98, 2485.824
683.17, 2747.145
683.36, 2655.396
683.55, 2457.972
683.73, 2507.533
683.92, 2661.540
684.11, 2823.330
684.30, 2532.518
684.49, 2479.681
684.67, 2695.127
684.86, 2629.592
685.05, 2353.116
685.24, 2413.326
685.42, 3077.278
685.61, 2736.905
685.80, 2459.610
685.99, 2539.481
686.18, 2777.046
686.36, 2682.429
686.55, 2640.241
686.74, 2448.961
686.93, 2797.116
687.11, 2935.968
687.30, 2237.611
687.49, 2284.714
687.68, 2867.566
687.86, 2790.562
688.05, 2408.821
688.24, 2339.190
688.43, 3119.056
688.61, 2829.883
688.80, 2380.559
688.99, 2350.659
689.18, 3119.466
689.36, 2911.802
689.55, 2365.813
689.74, 2218.769
689.93, 2830.293
690.11, 2753.289
690.30, 2348.201
690.49, 2374.825
690.68, 3113.732
690.86, 2673.009
691.05, 2322.806
691.24, 2347.791
691.43, 2809.813
691.61, 2999.865
691.80, 2337.142
691.99, 2274.474
692.17, 2887.226
692.36, 2762.710
692.55, 2459.610
692.74, 2258.090
692.92, 2618.533
693.11, 2696.765
693.30, 2508.352
693.49, 2309.290
693.67, 2668.503
693.86, 2791.791
694.05, 2426.024
694.23, 2432.168
694.42, 3130.115
694.61, 2632.459
694.79, 2367.861
694.98, 2340.419
695.17, 2960.953
695.36, 2416.603
695.54, 2448.142
695.73, 2260.138
695.92, 2850.363
696.10, 2938.016
696.29, 2228.600
696.48, 2471.489
696.66, 3288.219
696.85, 2554.636
697.04, 2281.437
697.22, 2357.212
697.41, 2995.769
697.60, 2605.426
697.79, 2286.352
697.97, 2328.540
698.16, 2942.931
698.35, 2749.193
698.53, 2364.175
698.72, 2318.301
698.91, 3131.344
699.09, 2779.094
699.28, 2389.980
699.47, 2478.452
699.65, 2552.588
699.84, 3022.392
700.03, 2451.009
700.21, 2363.766
700.40, 2566.924
700.59, 2779.913
700.77, 2464.935
700.96, 2362.127
701.15, 2954.400
701.33, 2983.890
701.52, 2216.312
701.70, 2406.363
701.89, 3130.525
702.08, 2677.105
702.26, 2297.002
702.45, 2213.445
702.64, 2441.179
702.82, 2757.795
703.01, 2437.083
703.20, 2310.518
703.38, 3117.828
703.57, 2609.522
703.76, 2387.112
703.94, 2370.729
704.13, 2627.544
704.31, 2491.149
704.50, 2525.965
704.69, 2511.219
704.87, 2666.865
705.06, 2756.156
705.25, 2398.581
705.43, 2329.360
705.62, 2777.865
705.80, 2873.300
705.99, 2452.647
706.18, 2311.338
706.36, 2754.518
706.55, 2601.330
706.73, 2348.611
706.92, 2387.522
707.11, 2876.577
707.29, 3009.285
707.48, 2523.917
707.66, 2417.832
707.85, 2557.094
708.04, 2757.795
708.22, 2384.245
708.41, 2400.629
708.59, 3040.005
708.78, 2765.987
708.97, 2157.740
709.15, 2444.046
709.34, 2813.090
709.52, 2759.433
709.71, 2349.839
709.90, 2296.183
710.08, 2997.407
710.27, 2439.950
710.45, 2349.020
710.64, 2309.699
710.82, 2870.843
711.01, 2652.120
711.20, 2408.821
711.38, 2231.876
711.57, 2672.190
711.75, 2561.190
711.94, 2421.928
712.12, 2430.120
712.31, 2691.850
712.50, 2942.522
712.68, 2287.581
712.87, 2485.824
713.05, 2713.968
713.24, 2550.131
713.42, 2350.249
713.61, 2284.304
713.79, 2905.248
713.98, 2552.179
714.17, 2355.574
714.35, 2360.898
714.54, 2664.817
714.72, 2637.784
714.91, 2336.732
715.09, 2481.319
715.28, 2591.090
715.46, 3084.241
715.65, 2307.242
715.83, 2315.024
716.02, 3001.503
716.21, 2881.492
716.39, 2395.304
716.58, 2227.371
716.76, 2705.367
716.95, 2975.289
717.13, 2311.747
717.32, 2267.921
717.50, 3119.876
717.69, 2963.001
717.87, 2314.205
718.06, 2352.297
718.24, 2609.931
718.43, 2886.817
718.61, 2435.035
718.80, 2348.611
718.98, 2788.924
719.17, 2698.813
719.35, 2447.323
719.54, 2407.182
719.72, 2647.614
719.91, 2857.736
720.09, 2244.164
720.28, 2429.710
720.46, 2738.544
720.65, 3203.842
720.83, 2330.588
721.02, 2455.515
721.20, 3019.525
721.39, 2762.300
721.57, 2318.710
721.76, 2554.227
721.94, 2801.621
722.13, 2757.795
722.31, 2414.965
722.50, 2447.732
722.68, 2713.968
722.87, 3017.068
723.05, 2328.131
723.24, 3019.935
723.42, 2593.138
723.61, 3113.732
723.79, 2274.474
723.98, 2291.267
724.16, 3044.920
724.34, 2595.186
724.53, 2496.474
724.71, 2575.935
724.90, 2696.356
725.08, 2907.706
725.27, 2329.360
725.45, 2226.142
725.64, 2573.068
725.82, 3091.204
726.01, 2204.024
726.19, 2341.647
726.38, 2661.540
726.56, 2586.585
726.74, 2530.470
726.93, 2350.659
727.11, 3407.410
727.30, 2758.614
727.48, 2391.208
727.67, 2407.592
727.85, 2814.728
728.04, 3028.127
728.22, 2402.677
728.40, 2450.190
728.59, 2884.359
728.77, 2786.466
728.96, 2287.172
729.14, 2342.057
729.33, 3311.975
729.51, 2873.710
729.69, 2491.149
729.88, 2326.083
730.06, 2836.437
730.25, 2857.736
730.43, 2344.105
730.61, 2410.869
730.80, 2764.758
730.98, 3019.525
731.17, 2438.312
731.35, 2322.397
731.54, 2788.514
731.72, 2957.676
731.90, 2322.806
732.09, 2408.002
732.27, 2981.433
732.46, 3050.245
732.64, 2358.850
732.82, 2326.902
733.01, 2796.706
733.19, 2918.765
733.38, 2182.316
733.56, 2469.031
733.74, 2876.577
733.93, 2942.112
734.11, 2383.836
734.29, 2265.873
734.48, 2893.780
734.66, 2733.629
734.85, 2239.249
735.03, 2294.954
735.21, 2799.573
735.40, 3164.521
735.58, 2425.614
735.77, 2362.127
735.95, 2979.795
736.13, 2656.215
736.32, 2242.526
736.50, 2412.917
736.68, 2639.013
736.87, 3013.791
737.05, 2391.618
737.23, 2421.518
737.42, 2877.396
737.60, 2735.267
737.79, 2414.555
737.97, 2290.448
738.15, 2968.736
738.34, 2776.226
738.52, 2421.928
738.70, 2478.861
738.89, 2961.363
739.07, 2714.787
739.25, 2506.304
739.44, 2381.788
739.62, 3058.846
739.80, 2653.758
739.99, 2267.101
740.17, 2453.057
740.35, 3156.739
740.54, 2990.034
740.72, 2309.290
740.90, 2292.087
741.09, 2559.961
741.27, 2777.046
741.45, 2471.898
741.64, 2298.640
741.82, 2895.009
742.00, 2784.828
742.19, 2423.976
742.37, 2390.799
742.55, 2686.525
742.74, 2797.525
742.92, 2349.839
743.10, 2559.551
743.29, 2995.359
743.47, 3017.887
743.65, 2344.105
743.83, 2488.692
744.02, 2823.739
744.20, 2702.500
744.38, 2267.921
744.57, 2331.817
744.75, 2612.799
744.93, 2709.053
745.12, 2391.618
745.30, 2380.968
745.48, 3321.396
745.66, 2556.275
745.85, 2297.002
746.03, 2332.636
746.21, 3047.787
746.40, 2759.024
746.58, 2440.360
746.76, 2312.157
746.94, 3049.425
747.13, 2886.817
747.31, 2285.943
747.49, 2457.972
747.68, 2832.750
747.86, 2999.865
748.04, 2309.290
748.22, 2301.507
748.41, 3015.839
748.59, 2965.868
748.77, 2277.341
748.95, 2458.382
749.14, 2635.326
749.32, 2829.883
749.50, 2380.149
749.68, 2268.740
749.87, 2643.518
750.05, 2828.245
750.23, 2369.090
750.42, 2391.208
750.60, 2742.640
750.78, 2718.474
750.96, 2500.160
751.15, 2527.193
751.33, 2475.585
751.51, 3015.020
751.69, 2420.699
751.87, 2372.367
752.06, 2557.094
752.24, 2762.710
752.42, 2356.802
752.60, 2255.633
752.79, 3107.178
752.97, 2871.252
753.15, 2303.146
753.33, 2402.267
753.52, 2693.488
753.70, 2813.499
753.88, 2337.552
754.06, 2430.120
754.24, 2658.263
754.43, 3060.075
754.61, 2357.622
754.79, 2349.839
754.97, 2673.009
755.16, 2981.433
755.34, 2474.765
755.52, 2493.607
755.70, 2853.640
755.88, 2595.596
756.07, 2363.766
756.25, 2333.046
756.43, 2893.370
756.61, 2564.876
756.79, 2466.164
756.98, 2264.644
757.16, 2851.592
757.34, 2563.647
757.52, 2338.371
757.70, 2377.282
757.89, 2957.676
758.07, 3376.281
758.25, 2409.640
758.43, 2248.260
758.61, 2861.832
758.80, 2897.876
758.98, 2469.031
759.16, 2404.725
759.34, 2955.628
759.52, 2682.839
759.70, 2412.507
759.89, 2431.758
760.07, 2735.267
760.25, 2741.411
760.43, 2228.600
760.61, 2430.939
760.79, 2674.647
760.98, 2752.470
761.16, 2407.182
761.34, 2476.813
761.52, 2398.171
761.70, 2775.407
761.88, 2380.968
762.07, 2352.707
762.25, 3098.986
762.43, 2784.009
762.61, 2337.961
762.79, 2258.500
762.97, 2770.902
763.15, 2588.632
763.34, 2275.293
763.52, 2303.555
763.70, 2992.492
763.88, 2928.595
764.06, 2479.271
764.24, 2257.681
764.42, 2885.588
764.61, 2686.116
764.79, 2259.729
764.97, 2446.503
765.15, 2586.175
765.33, 3001.093
765.51, 2389.980
765.69, 2625.906
765.87, 2983.890
766.06, 2950.713
766.24, 2301.098
766.42, 2265.873
766.60, 2825.787
766.78, 3074.001
766.96, 2512.038
767.14, 2379.330
767.32, 2945.798
767.50, 2577.164
767.69, 2428.072
767.87, 2485.005
768.05, 3034.270
768.23, 2648.433
768.41, 2564.876
768.59, 2278.160
768.77, 2797.525
768.95, 2753.289
769.13, 2325.673
769.32, 2348.611
769.50, 2888.865
769.68, 2842.990
769.86, 2439.950
770.04, 2310.928
770.22, 2491.559
770.40, 2781.142
770.58, 2238.020
770.76, 2299.050
770.94, 3056.798
771.12, 2559.961
771.30, 2305.603
771.49, 2482.548
771.67, 2860.193
771.85, 2782.780
772.03, 2367.861
772.21, 2399.810
772.39, 2754.928
772.57, 2941.702
772.75, 2294.135
772.93, 2446.503
773.11, 2960.134
773.29, 2835.618
773.47, 2385.474
773.65, 2466.574
773.83, 3024.031
774.01, 2625.086
774.19, 2410.050
774.38, 2541.939
774.56, 3096.119
774.74, 2931.053
774.92, 2342.467
775.10, 2363.766
775.28, 2600.101
775.46, 3055.160
775.64, 2311.747
775.82, 2332.227
776.00, 2484.186
776.18, 2640.241
776.36, 2314.614
776.54, 2530.061
776.72, 2729.942
776.90, 2797.116
777.08, 2336.323
777.26, 2411.278
777.44, 2697.584
777.62, 2899.924
777.80, 2339.600
777.98, 2414.146
778.16, 2713.968
778.34, 2906.068
778.52, 2527.603
778.70, 2401.448
778.88, 2766.806
779.06, 2559.551
779.24, 2360.489
779.42, 2474.765
779.60, 3049.835
779.78, 2834.389
779.96, 2290.448
780.14, 2351.887
780.32, 2861.012
780.50, 3020.754
780.68, 2382.197
780.86, 2387.932
781.04, 2810.632
781.22, 2669.322
781.40, 2498.112
781.58, 2319.939
781.76, 2772.130
781.94, 2908.525
782.12, 2440.360
782.30, 2539.481
782.48, 2876.986
782.66, 2909.344
782.84, 2419.880
783.02, 2471.898
783.20, 2968.326
783.38, 2963.411
783.56, 2306.422
783.74, 2305.603
783.92, 2727.894
784.10, 2890.913
784.28, 2417.832
784.46, 2413.326
784.64, 2856.916
784.82, 2833.979
785.00, 2322.806
785.18, 2281.437
785.36, 2973.651
785.54, 2489.920
785.72, 2416.194
785.90, 2339.190
786.08, 2544.806
786.26, 2756.566
786.43, 2465.754
786.61, 2424.795
786.79, 3087.108
786.97, 3123.152
787.15, 2409.230
787.33, 2308.880
787.51, 2655.806
787.69, 3024.440
787.87, 2347.382
788.05, 2355.983
788.23, 3431.986
788.41, 2697.175
788.59, 2465.345
788.77, 2426.843
788.95, 2856.916
789.13, 2803.260
789.30, 2421.928
789.48, 2291.677
789.66, 2862.241
789.84, 2833.570
790.02, 2383.836
790.20, 2194.194
790.38, 2885.178
790.56, 2713.559
790.74, 2369.090
790.92, 2409.230
791.10, 2989.625
791.28, 3004.780
791.45, 2600.920
791.63, 2221.227
791.81, 3212.444
791.99, 2924.090
792.17, 2332.227
792.35, 2367.452
792.53, 2408.821
792.71, 2941.293
792.89, 2321.577
793.07, 2541.939
793.24, 2786.057
793.42, 3061.713
793.60, 2360.489
793.78, 2380.968
793.96, 2747.555
794.14, 2817.595
794.32, 2367.861
794.50, 2419.470
794.67, 2846.677
794.85, 2703.728
795.03, 2454.695
795.21, 2399.400
795.39, 2794.249
795.57, 2863.880
795.75, 2428.891
795.93, 2434.216
796.10, 3173.123
796.28, 2681.201
796.46, 2286.762
796.64, 2421.518
796.82, 2996.178
797.00, 3016.248
797.18, 2384.245
797.35, 2312.976
797.53, 2807.765
797.71, 2885.178
797.89, 2580.031
798.07, 2410.869
798.25, 2822.511
798.43, 3049.425
798.60, 2395.304
798.78, 2429.710
798.96, 3164.931
799.14, 2605.835
799.32, 2271.197
799.50, 2462.887
799.67, 2735.677
799.85, 2855.688
800.03, 2431.348
800.21, 2443.227
800.39, 2884.359
800.57, 2908.525
800.74, 2436.264
800.92, 2452.238
801.10, 2736.496
801.28, 2553.407
801.46, 2279.799
801.64, 2355.164
801.81, 3123.152
801.99, 2720.112
802.17, 2485.415
802.35, 2473.127
802.53, 2745.097
802.70, 2209.758
802.88, 2326.902
803.06, 2269.149
803.24, 2824.968
803.42, 2882.721
803.59, 2352.706
803.77, 2215.493
803.95, 3187.049
804.13, 2956.448
804.31, 2444.456
804.48, 2408.821
804.66, 2960.134
804.84, 2566.105
805.02, 2458.382
805.20, 2471.898
805.37, 2732.400
805.55, 2852.411
805.73, 2448.961
805.91, 2493.197
806.08, 2994.130
806.26, 2802.031
806.44, 2374.005
806.62, 2295.363
806.80, 2820.872
806.97, 2736.086
807.15, 2431.348
807.33, 2517.363
807.51, 2981.023
807.68, 2344.924
807.86, 2417.832
808.04, 2367.452
808.22, 2833.160
808.39, 4364.631
808.57, 2407.182
808.75, 2449.371
808.93, 2784.009
809.10, 2595.596
809.28, 2415.374
809.46, 2386.703
809.64, 3059.256
809.81, 2582.898
809.99, 2430.939
810.17, 2270.788
810.35, 3294.363
810.52, 2809.813
810.70, 2399.810
810.88, 2427.662
811.06, 2836.846
811.23, 3021.983
811.41, 2326.492
811.59, 2185.183
811.77, 2974.470
811.94, 2594.776
812.12, 2538.252
812.30, 2430.120
812.47, 2877.806
812.65, 3010.104
812.83, 2418.651
813.01, 2422.747
813.18, 2689.393
813.36, 2910.983
813.54, 2330.998
813.71, 2424.385
813.89, 3294.363
814.07, 2972.422
814.25, 2587.813
814.42, 2466.574
814.60, 3175.580
814.78, 2958.086
814.95, 2204.024
815.13, 2473.946
815.31, 2721.750
815.49, 3041.643
815.66, 2405.134
815.84, 2453.057
816.02, 3008.466
816.19, 2804.898
816.37, 2472.308
816.55, 2513.267
816.72, 3123.972
816.90, 2717.245
817.08, 2299.459
817.25, 2340.828
817.43, 3048.197
817.61, 2705.776
817.78, 2499.751
817.96, 2506.304
818.14, 2610.341
818.31, 2941.293
818.49, 2365.813
818.67, 2302.736
818.84, 2623.038
819.02, 2536.204
819.20, 2341.238
819.37, 2439.131
819.55, 2727.485
819.73, 2959.315
819.90, 2416.603
820.08, 2701.271
820.26, 2969.145
820.43, 3004.780
820.61, 2489.101
820.79, 2356.393
820.96, 2842.581
821.14, 2682.429
821.32, 2439.540
821.49, 2363.356
821.67, 2767.625
821.85, 2734.448
822.02, 2448.142
822.20, 2418.242
822.37, 3157.968
822.55, 2530.061
822.73, 2561.599
822.90, 2495.245
823.08, 3176.809
823.26, 2683.249
823.43, 2572.658
823.61, 2503.027
823.78, 2960.544
823.96, 2608.293
824.14, 2529.241
824.31, 2396.943
824.49, 3166.160
824.67, 3123.972
824.84, 2461.658
825.02, 2432.168
825.19, 2991.673
825.37, 3284.123
825.55, 2435.444
825.72, 2369.090
825.90, 2583.308
826.07, 2724.618
826.25, 2573.887
826.43, 2323.216
826.60, 2461.249
826.78, 2823.739
826.95, 2394.075
827.13, 2303.146
827.31, 3131.754
827.48, 2921.632
827.66, 2419.470
827.83, 2627.953
828.01, 2738.134
828.19, 2781.551
828.36, 2400.629
828.54, 2568.562
828.71, 2707.005
828.89, 2763.529
829.06, 2349.020
829.24, 2675.057
829.42, 2739.773
829.59, 3029.355
829.77, 2452.647
829.94, 2394.895
830.12, 2880.673
830.29, 2623.858
830.47, 2384.245
830.65, 2282.666
830.82, 3160.425
831.00, 2808.994
831.17, 2402.267
831.35, 2433.396
831.52, 2810.223
831.70, 2907.296
831.87, 2245.393
832.05, 2276.932
832.23, 2796.297
832.40, 2800.802
832.58, 2534.976
832.75, 2392.847
832.93, 2734.038
833.10, 2723.389
833.28, 2547.673
833.45, 2401.448
833.63, 2895.418
833.80, 2506.714
833.98, 2435.854
834.15, 2513.267
834.33, 2939.245
834.51, 2804.079
834.68, 2336.323
834.86, 2263.825
835.03, 2770.492
835.21, 2796.706
835.38, 2415.784
835.56, 2419.880
835.73, 2888.455
835.91, 3003.961
836.08, 2318.710
836.26, 2490.740
836.43, 2852.411
836.61, 2915.488
836.78, 2363.356
836.96, 2290.448
837.13, 3280.846
837.31, 2935.968
837.48, 2523.098
837.66, 2322.397
837.83, 2881.902
838.01, 2961.363
838.18, 2167.980
838.36, 2157.740
838.53, 2711.920
838.71, 3162.064
838.88, 2231.876
839.06, 2308.061
839.23, 2885.998
839.41, 2822.920
839.58, 2306.422
839.76, 2159.378
839.93, 2985.119
840.11, 2967.097
840.28, 2238.839
840.46, 2337.142
840.63, 2571.839
840.81, 2812.271
840.98, 2217.541
841.15, 2255.223
841.33, 2937.197
841.50, 2671.370
841.68, 2328.131
841.85, 2335.913
842.03, 3125.610
842.20, 3051.064
842.38, 2168.799
842.55, 2192.555
842.73, 2882.721
842.90, 2727.485
843.08, 2291.267
843.25, 2447.732
843.42, 2801.621
843.60, 3031.403
843.77, 2217.541
843.95, 2246.212
844.12, 2482.957
844.30, 3019.116
844.47, 2226.142
844.64, 2184.773
844.82, 3288.219
844.99, 2791.381
845.17, 2297.411
845.34, 2143.404
845.52, 2833.570
845.69, 2996.997
845.87, 2331.408
846.04, 2224.094
846.21, 2866.747
846.39, 2895.418
846.56, 2307.242
846.74, 2209.349
846.91, 2785.647
847.08, 2686.935
847.26, 2112.275
847.43, 2208.120
847.61, 2793.020
847.78, 3137.898
847.95, 2251.127
848.13, 2208.939
848.30, 2835.618
848.48, 2734.038
848.65, 2276.112
848.83, 2258.910
849.00, 2733.629
849.17, 2882.311
849.35, 2269.149
849.52, 2162.655
849.69, 3006.828
849.87, 2753.699
850.04, 2189.688
850.22, 2147.910
850.39, 2788.105
850.56, 3059.665
850.74, 2192.146
850.91, 2163.884
851.09, 2682.429
851.26, 2912.212
851.43, 2111.865
851.61, 2299.869
851.78, 2646.385
851.95, 2763.939
852.13, 2203.205
852.30, 2125.792
852.48, 3348.019
852.65, 2867.566
852.82, 2189.688
853.00, 2195.832
853.17, 2972.422
853.34, 2455.924
853.52, 2215.493
853.69, 2043.873
853.86, 3009.695
854.04, 2873.710
854.21, 2289.629
854.38, 2152.415
854.56, 2634.917
854.73, 2588.223
854.90, 2283.485
855.08, 2190.098
855.25, 2896.647
855.42, 2473.127
855.60, 2360.079
855.77, 2277.341
855.95, 2903.610
856.12, 2934.330
856.29, 2158.559
856.46, 2288.810
856.64, 2778.684
856.81, 2925.728
856.98, 2306.013
857.16, 2252.356
857.33, 2597.644
857.50, 2951.533
857.68, 2153.644
857.85, 2278.980
858.02, 2661.540
858.20, 2689.802
858.37, 2256.042
858.54, 2147.090
858.72, 3469.259
858.89, 3069.905
859.06, 2229.009
859.24, 2176.172
859.41, 2901.153
859.58, 2948.665
859.75, 2216.312
859.93, 2212.216
860.10, 2901.153
860.27, 2994.540
860.45, 2216.312
860.62, 2278.980
860.79, 2854.459
860.97, 2949.485
861.14, 2276.112
861.31, 2263.005
861.48, 2879.444
861.66, 2540.300
861.83, 2177.400
862.00, 2156.511
862.17, 2616.485
862.35, 2954.400
862.52, 2219.179
862.69, 2310.109
862.87, 2954.809
863.04, 2930.643
863.21, 2122.515
863.38, 2262.186
863.56, 2930.643
863.73, 2723.389
863.90, 2175.762
864.07, 2409.640
864.25, 3152.234
864.42, 2665.636
864.59, 2112.275
864.76, 2192.146
864.94, 3045.330
865.11, 2652.120
865.28, 2131.935
865.45, 2238.839
865.63, 2820.053
865.80, 2620.171
865.97, 2188.050
866.14, 2114.323
866.32, 2920.403
866.49, 2675.876
866.66, 2343.695
866.83, 2175.352
867.01, 2734.038
867.18, 2741.411
867.35, 2072.544
867.52, 2120.876
867.70, 3075.230
867.87, 3190.326
868.04, 2182.725
868.21, 2188.050
868.38, 2867.156
868.56, 3124.791
868.73, 2234.334
868.90, 2140.947
869.07, 2737.725
869.24, 2893.370
869.42, 2214.673
869.59, 2423.157
869.76, 3133.802
869.93, 2693.488
870.11, 2294.135
870.28, 2212.216
870.45, 3187.049
870.62, 2881.902
870.79, 2262.596
870.97, 2308.470
871.14, 2999.455
871.31, 3005.189
871.48, 2273.655
871.65, 2415.374
871.82, 3193.602
872.00, 2916.308
872.17, 2204.843
872.34, 2298.231
872.51, 2786.057
872.68, 2943.750
872.86, 2370.729
873.03, 2214.264
873.20, 2888.865
873.37, 3341.875
873.54, 2185.592
873.71, 2258.500
873.89, 3242.344
874.06, 2956.038
874.23, 2206.482
874.40, 2301.917
874.57, 3234.971
874.74, 2816.367
874.92, 2308.880
875.09, 2122.515
875.26, 3128.067
875.43, 2972.831
875.60, 2225.323
875.77, 2272.836
875.95, 2655.396
876.12, 2921.223
876.29, 2179.039
876.46, 2326.902
876.63, 2781.961
876.80, 2936.378
876.97, 2407.592
877.15, 2151.596
877.32, 3090.794
877.49, 2739.773
877.66, 2535.795
877.83, 2318.301
878.00, 2682.839
878.17, 3332.864
878.34, 2211.397
878.52, 2320.758
878.69, 2875.758
878.86, 2593.548
879.03, 2143.814
879.20, 2169.618
879.37, 2875.758
879.54, 3366.041
879.71, 2153.234
879.89, 2235.153
880.06, 3149.776
880.23, 2791.791
880.40, 2249.079
880.57, 2357.622
880.74, 2755.747
880.91, 3171.075
881.08, 2325.673
881.25, 2369.090
881.42, 3083.012
881.60, 2744.278
881.77, 2265.053
881.94, 2197.470
882.11, 2748.784
882.28, 2868.385
882.45, 2213.445
882.62, 2286.762
882.79, 3172.304
882.96, 2880.263
883.13, 2190.098
883.30, 2464.526
883.48, 3005.189
883.65, 2753.289
883.82, 2158.559
883.99, 2191.327
884.16, 3145.680
884.33, 2716.426
884.50, 2272.836
884.67, 2372.777
884.84, 2891.322
885.01, 2735.677
885.18, 2312.566
885.35, 2221.227
885.52, 2494.426
885.69, 2825.787
885.87, 2228.600
886.04, 2240.068
886.21, 2917.946
886.38, 3019.935
886.55, 2176.991
886.72, 2242.526
886.89, 3029.765
887.06, 2784.828
887.23, 2259.319
887.40, 2300.278
887.57, 2848.725
887.74, 2896.647
887.91, 2050.836
888.08, 2137.670
888.25, 2981.433
888.42, 3268.149
888.59, 2331.408
888.76, 2243.345
888.93, 2834.798
889.10, 2592.319
889.27, 2296.183
889.44, 2301.507
889.61, 2788.105
889.78, 2734.038
889.95, 2403.496
890.12, 2435.444
890.29, 3017.887
890.46, 2750.832
890.63, 2154.463
890.80, 2202.386
890.97, 2771.311
891.15, 2959.724
891.32, 2222.046
891.49, 2329.360
891.66, 3224.732
891.83, 2796.297
892.00, 2302.326
892.17, 2399.400
892.34, 2968.326
892.51, 2979.795
892.68, 2314.614
892.84, 2155.282
893.01, 2676.286
893.18, 2993.721
893.35, 2295.363
893.52, 2181.906
893.69, 2972.422
##END=
##TITLE= SPECTRASUITE EXPORTED SPECTRA: REFERENCE SPECTRUM
##JCAMP-DX= 5 $$EXPORTED SPECTRASUITE FILE
##DATA TYPE= UV/VIS SPECTRUM
##SAMPLE DESCRIPTION= REFERENCE SPECTRUM
##BLOCK_ID=3
##ORIGIN= OCEANOPTICS EXPORT
##OWNER= hugo
##SPECTROMETER/DATA SYSTEM= OCEANOPTICS EXPORT
##DATA PROCESSING= DARK:Yes REFERENCE:Yes
##DATA PROCESSING= BOXCAR:0 ELECTRICAL DARK: false
##.ACQUISITION TIME= 400
##.AVERAGES= 5
##XUNITS= NANOMETERS
##YUNITS= Transmission (%)
##XFACTOR= 1.0
##YFACTOR= 1.0
##FIRSTX= 176.36
##LASTX= 893.69
##FIRSTY= 32822.795
##MINY= 1555.227
##MAXY= 32822.795
##NPOINTS= 3648
##XYPOINTS= (XY..XY)
176.36, 32822.795
176.58, 32822.795
176.80, 32822.795
177.02, 1606.017
177.24, 1555.227
177.47, 2494.426
177.69, 2473.127
177.91, 2913.031
178.13, 2563.647
178.35, 2351.068
178.57, 2306.422
178.79, 2527.603
179.01, 2587.813
179.23, 2224.913
179.46, 2371.548
179.68, 2520.230
179.90, 2469.441
180.12, 2209.349
180.34, 2286.352
180.56, 2507.533
180.78, 2834.389
181.00, 2267.511
181.22, 2430.939
181.44, 2572.658
181.66, 2689.802
181.89, 2387.112
182.11, 2228.600
182.33, 2618.533
182.55, 3069.905
182.77, 2455.105
182.99, 2546.854
183.21, 2299.869
183.43, 2607.064
183.65, 2270.788
183.87, 2169.618
184.09, 2863.470
184.31, 2763.119
184.53, 2290.448
184.76, 2257.271
184.98, 2557.094
185.20, 2841.352
185.42, 2454.695
185.64, 2308.470
185.86, 2948.665
186.08, 3187.868
186.30, 2246.622
186.52, 2242.116
186.74, 2759.024
186.96, 2693.488
187.18, 2345.743
187.40, 2263.005
187.62, 2871.252
187.84, 2867.156
188.06, 2414.965
188.28, 2343.695
188.51, 2840.942
188.73, 2831.112
188.95, 2349.020
189.17, 2441.588
189.39, 2735.267
189.61, 2750.422
189.83, 2421.518
190.05, 2383.016
190.27, 2939.245
190.49, 2727.075
190.71, 2187.640
190.93, 2273.245
191.15, 2397.762
191.37, 2788.514
191.59, 2358.441
191.81, 2416.194
192.03, 2678.743
192.25, 2763.529
192.47, 2269.969
192.69, 2319.939
192.91, 2756.566
193.13, 2702.500
193.35, 2187.231
193.57, 2446.503
193.79, 2550.540
194.01, 2906.068
194.23, 2356.393
194.45, 2253.585
194.67, 2853.640
194.89, 2504.666
195.11, 2218.360
195.33, 2150.777
195.55, 2595.186
195.77, 2715.607
195.99, 2379.740
196.21, 2260.548
196.43, 2760.662
196.65, 2576.345
196.87, 2468.622
197.09, 2326.492
197.31, 2897.057
197.53, 2915.488
197.75, 2398.991
197.97, 2367.861
198.19, 2862.241
198.41, 3063.761
198.63, 2292.496
198.85, 2328.950
199.07, 2854.049
199.29, 2498.522
199.51, 2300.688
199.73, 2430.529
199.95, 2557.913
200.17, 2790.153
200.39, 2389.980
200.61, 2388.341
200.83, 2529.651
201.05, 2784.418
201.27, 2269.149
201.49, 2334.275
201.71, 2908.935
201.93, 2861.012
202.15, 2288.810
202.37, 2298.231
202.59, 2754.518
202.81, 2619.762
203.03, 2399.400
203.25, 2344.924
203.47, 2646.385
203.69, 2662.359
203.91, 2403.906
204.13, 2232.286
204.35, 2517.773
204.57, 2891.732
204.79, 2242.935
205.01, 2277.751
205.23, 2883.950
205.45, 2663.179
205.67, 2161.836
205.89, 2315.843
206.10, 2905.248
206.32, 2454.286
206.54, 2211.397
206.76, 2317.891
206.98, 2680.791
207.20, 2583.308
207.42, 2356.393
207.64, 2193.784
207.86, 2567.334
208.08, 3124.791
208.30, 2266.692
208.52, 2253.994
208.74, 2842.990
208.96, 2860.193
209.18, 2164.293
209.40, 2487.053
209.62, 2593.548
209.83, 2673.828
210.05, 2232.696
210.27, 2281.437
210.49, 2624.267
210.71, 2526.784
210.93, 2361.718
211.15, 2392.437
211.37, 2509.581
211.59, 2571.020
211.81, 2222.456
212.03, 2252.766
212.25, 2739.363
212.47, 2597.644
212.68, 2270.788
212.90, 2359.670
213.12, 2645.566
213.34, 2878.625
213.56, 2199.518
213.78, 2267.921
214.00, 2955.219
214.22, 2452.647
214.44, 2343.695
214.66, 2309.290
214.88, 2620.171
215.09, 2686.116
215.31, 2068.858
215.53, 2312.566
215.75, 2763.939
215.97, 2481.729
216.19, 2415.784
216.41, 2433.396
216.63, 2572.249
216.85, 2937.197
217.06, 2383.836
217.28, 2295.773
217.50, 2499.751
217.72, 2832.750
217.94, 2380.559
218.16, 2248.260
218.38, 2489.920
218.60, 2522.278
218.82, 2308.061
219.03, 2337.142
219.25, 2704.548
219.47, 2721.341
219.69, 2313.795
219.91, 2421.928
220.13, 2985.529
220.35, 2695.127
220.57, 2337.552
220.78, 2466.164
221.00, 2731.581
221.22, 2823.739
221.44, 2319.529
221.66, 2229.828
221.88, 2952.352
222.10, 2417.422
222.31, 2193.784
222.53, 2209.758
222.75, 2511.629
222.97, 2550.950
223.19, 2306.422
223.41, 2343.286
223.63, 2536.204
223.84, 3015.429
224.06, 2319.120
224.28, 2318.710
224.50, 2856.097
224.72, 2661.131
224.94, 2258.090
225.16, 2338.780
225.37, 3056.389
225.59, 2680.382
225.81, 2300.278
226.03, 2375.234
226.25, 2912.212
226.47, 2559.961
226.68, 2333.456
226.90, 2340.828
227.12, 2542.758
227.34, 2841.352
227.56, 2223.275
227.78, 2275.293
227.99, 2651.300
228.21, 2664.817
228.43, 2420.699
228.65, 2335.913
228.87, 2732.400
229.09, 2582.489
229.30, 2383.426
229.52, 2221.636
229.74, 2731.171
229.96, 2953.990
230.18, 2347.791
230.39, 2312.157
230.61, 2699.223
230.83, 2600.920
231.05, 2247.441
231.27, 2380.559
231.49, 2573.887
231.70, 2759.433
231.92, 2282.256
232.14, 2270.378
232.36, 2545.625
232.58, 2832.750
232.79, 2202.386
233.01, 2268.740
233.23, 2687.754
233.45, 2561.599
233.67, 2256.862
233.88, 2331.408
234.10, 2939.245
234.32, 2870.433
234.54, 2289.219
234.75, 2292.906
234.97, 2754.928
235.19, 2919.994
235.41, 2333.456
235.63, 2310.109
235.84, 2957.676
236.06, 2454.286
236.28, 2314.205
236.50, 2214.673
236.72, 2461.658
236.93, 2580.850
237.15, 2281.028
237.37, 2225.323
237.59, 2842.581
237.80, 2507.943
238.02, 2278.160
238.24, 2266.692
238.46, 2786.057
238.67, 2949.485
238.89, 2381.788
239.11, 2363.766
239.33, 2551.359
239.55, 2569.382
239.76, 2434.625
239.98, 2237.611
240.20, 2671.370
240.42, 2601.330
240.63, 2337.142
240.85, 2296.183
241.07, 2757.795
241.29, 2841.761
241.50, 2233.515
241.72, 2366.633
241.94, 2607.064
242.16, 3029.765
242.37, 2296.592
242.59, 2303.965
242.81, 2391.618
243.03, 2777.455
243.24, 2273.655
243.46, 2421.928
243.68, 2820.053
243.90, 2476.813
244.11, 2225.323
244.33, 2249.079
244.55, 2603.787
244.76, 2605.835
244.98, 2414.555
245.20, 2240.068
245.42, 2741.821
245.63, 2511.629
245.85, 2207.710
246.07, 2283.485
246.29, 2738.544
246.50, 2742.640
246.72, 2384.655
246.94, 2435.444
247.15, 2555.455
247.37, 2919.584
247.59, 2254.404
247.81, 2416.603
248.02, 2623.038
248.24, 2807.356
248.46, 2337.552
248.67, 2266.692
248.89, 2779.913
249.11, 2780.732
249.33, 2393.256
249.54, 2275.293
249.76, 2630.001
249.98, 2446.503
250.19, 2272.836
250.41, 2223.684
250.63, 2757.385
250.84, 2546.444
251.06, 2304.374
251.28, 2362.537
251.50, 2442.408
251.71, 2670.142
251.93, 2290.039
252.15, 2250.718
252.36, 2586.994
252.58, 3052.702
252.80, 2344.515
253.01, 2510.810
253.23, 2775.407
253.45, 2600.920
253.66, 2327.721
253.88, 2346.563
254.10, 2538.252
254.31, 2803.669
254.53, 2156.921
254.75, 2349.430
254.97, 2953.581
255.18, 2686.525
255.40, 2345.743
255.62, 2301.098
255.83, 2516.134
256.05, 2762.300
256.27, 2299.459
256.48, 2329.769
256.70, 2715.197
256.92, 2738.134
257.13, 2457.972
257.35, 2217.950
257.57, 2901.562
257.78, 2695.536
258.00, 2475.585
258.21, 2444.456
258.43, 2845.448
258.65, 2721.750
258.86, 2321.577
259.08, 2351.887
259.30, 2855.688
259.51, 2901.153
259.73, 2176.991
259.95, 2386.703
260.16, 2798.344
260.38, 2958.086
260.60, 2202.795
260.81, 2302.736
261.03, 2733.219
261.25, 2487.053
261.46, 2355.983
261.68, 2299.869
261.89, 2567.334
262.11, 2586.585
262.33, 2340.419
262.54, 2116.780
262.76, 2761.481
262.98, 2726.666
263.19, 2248.260
263.41, 2299.459
263.62, 2645.976
263.84, 2721.341
264.06, 2315.433
264.27, 2359.670
264.49, 2661.950
264.71, 2695.127
264.92, 2414.146
265.14, 2459.610
265.35, 2742.230
265.57, 2767.215
265.79, 2354.345
266.00, 2367.452
266.22, 2944.569
266.43, 2514.906
266.65, 2419.061
266.87, 2199.109
267.08, 2408.002
267.30, 2471.489
267.51, 2466.164
267.73, 2367.042
267.95, 2992.492
268.16, 2545.625
268.38, 2372.777
268.59, 2453.057
268.81, 2777.865
269.03, 2839.713
269.24, 2330.588
269.46, 2419.061
269.67, 2661.131
269.89, 2648.433
270.11, 2423.976
270.32, 2429.710
270.54, 2650.481
270.75, 3126.839
270.97, 2291.267
271.19, 2369.500
271.40, 2677.924
271.62, 2512.038
271.83, 2265.463
272.05, 2253.585
272.26, 2781.961
272.48, 2817.186
272.70, 2489.511
272.91, 2449.371
273.13, 2830.293
273.34, 2863.060
273.56, 2464.526
273.77, 2495.245
273.99, 3079.735
274.21, 3137.488
274.42, 2635.736
274.64, 2491.968
274.85, 2743.869
275.07, 2629.182
275.28, 2490.330
275.50, 2591.090
275.71, 2594.776
275.93, 2596.005
276.15, 2611.979
276.36, 2532.109
276.58, 2932.691
276.79, 2721.750
277.01, 2598.053
277.22, 2592.319
277.44, 3271.835
277.65, 2953.990
277.87, 2588.632
278.08, 2502.208
278.30, 3265.281
278.52, 2836.027
278.73, 2621.810
278.95, 2459.610
279.16, 2662.359
279.38, 2844.219
279.59, 2702.090
279.81, 2481.729
280.02, 3037.138
280.24, 3121.924
280.45, 2595.186
280.67, 2448.961
280.88, 2811.452
281.10, 3008.466
281.31, 2684.477
281.53, 2615.256
281.74, 2923.271
281.96, 2778.684
282.17, 2522.688
282.39, 2589.042
282.60, 2688.164
282.82, 2842.990
283.04, 2612.389
283.25, 2605.426
283.47, 2889.274
283.68, 2900.333
283.90, 2691.031
284.11, 2585.765
284.33, 2696.356
284.54, 2819.643
284.76, 2568.972
284.97, 2768.854
285.19, 2847.086
285.40, 3027.307
285.62, 2795.477
285.83, 2611.160
286.05, 2923.680
286.26, 2858.964
286.48, 2665.636
286.69, 2742.640
286.91, 2706.596
287.12, 3254.632
287.33, 2586.994
287.55, 2588.632
287.76, 3067.448
287.98, 3040.414
288.19, 2924.909
288.41, 2512.038
288.62, 2961.772
288.84, 3015.020
289.05, 2543.168
289.27, 2579.621
289.48, 3130.525
289.70, 2772.130
289.91, 2795.068
290.13, 2691.441
290.34, 3101.034
290.56, 3024.850
290.77, 2754.518
290.99, 2711.511
291.20, 2876.577
291.41, 2867.156
291.63, 2773.769
291.84, 2919.584
292.06, 3107.178
292.27, 2984.300
292.49, 2720.522
292.70, 2970.783
292.92, 3146.499
293.13, 3201.794
293.35, 2848.315
293.56, 2831.931
293.77, 2938.016
293.99, 3304.602
294.20, 2769.263
294.42, 2850.772
294.63, 3182.134
294.85, 3337.370
295.06, 2796.706
295.28, 2867.975
295.49, 2839.304
295.70, 3404.543
295.92, 2891.322
296.13, 3033.042
296.35, 3449.599
296.56, 3181.724
296.78, 2844.219
296.99, 2921.223
297.20, 3160.016
297.42, 3386.931
297.63, 3019.525
297.85, 2982.662
298.06, 3139.536
298.28, 3316.071
298.49, 2911.392
298.70, 3001.503
298.92, 3497.111
299.13, 3533.156
299.35, 3156.739
299.56, 3035.499
299.77, 3076.868
299.99, 3207.119
300.20, 3122.333
300.42, 2992.902
300.63, 3274.702
300.85, 3567.152
301.06, 3242.344
301.27, 3125.200
301.49, 3324.672
301.70, 3465.163
301.92, 3194.831
302.13, 3148.547
302.34, 3384.883
302.56, 3593.776
302.77, 3181.724
302.99, 3204.252
303.20, 3498.750
303.41, 3486.462
303.63, 3252.174
303.84, 3150.186
304.05, 3285.351
304.27, 3497.931
304.48, 3308.289
304.70, 3187.868
304.91, 3638.012
305.12, 3597.871
305.34, 3191.555
305.55, 3258.318
305.77, 3368.909
305.98, 3709.281
306.19, 3321.396
306.41, 3456.562
306.62, 3495.883
306.83, 3785.056
307.05, 3384.064
307.26, 3356.621
307.47, 3891.550
307.69, 3941.930
307.90, 3463.934
308.12, 3451.237
308.33, 3762.119
308.54, 4073.819
308.76, 3283.713
308.97, 3561.008
309.18, 3864.107
309.40, 3653.576
309.61, 3629.820
309.82, 3418.879
310.04, 3787.513
310.25, 4057.436
310.46, 3514.314
310.68, 3619.580
310.89, 3904.248
311.11, 3667.502
311.32, 3640.060
311.53, 3639.240
311.75, 4013.609
311.96, 4016.886
312.17, 3757.203
312.39, 3761.709
312.60, 3930.052
312.81, 4129.115
313.03, 3777.683
313.24, 3701.499
313.45, 3921.860
313.67, 4121.742
313.88, 3791.200
314.09, 3806.355
314.31, 4011.561
314.52, 4009.513
314.73, 3778.912
314.95, 3812.499
315.16, 4309.336
315.37, 4232.742
315.58, 3806.355
315.80, 3680.200
316.01, 3919.812
316.22, 4083.240
316.44, 3887.045
316.65, 3974.288
316.86, 4089.794
317.08, 4215.539
317.29, 3936.196
317.50, 3744.916
317.72, 3992.720
317.93, 4339.236
318.14, 3885.406
318.35, 4081.192
318.57, 4102.491
318.78, 4357.258
318.99, 4014.019
319.21, 3865.746
319.42, 4487.919
319.63, 4116.008
319.85, 3889.093
320.06, 4099.214
320.27, 4222.502
320.48, 4017.296
320.70, 4041.871
320.91, 4139.354
321.12, 4418.697
321.34, 4406.410
321.55, 4172.532
321.76, 4159.834
321.97, 4570.657
322.19, 4396.579
322.40, 4321.214
322.61, 4322.033
322.83, 4481.365
323.04, 4522.734
323.25, 4398.218
323.46, 4428.937
323.68, 4724.254
323.89, 4523.144
324.10, 4419.926
324.31, 4688.620
324.53, 4815.594
324.74, 5008.103
324.95, 4689.029
325.16, 4835.254
325.38, 5087.154
325.59, 5155.147
325.80, 4781.597
326.01, 4708.280
326.23, 5316.936
326.44, 5110.092
326.65, 4793.066
326.86, 4886.044
327.08, 5001.549
327.29, 5057.254
327.50, 4767.671
327.71, 4896.693
327.93, 4660.358
328.14, 4931.099
328.35, 4770.948
328.56, 4930.280
328.78, 5073.638
328.99, 5467.667
329.20, 4858.601
329.41, 4955.675
329.63, 5257.545
329.84, 5112.549
330.05, 4971.239
330.26, 4896.693
330.48, 4869.660
330.69, 5081.420
330.90, 5019.981
331.11, 4833.616
331.32, 5136.715
331.54, 5345.608
331.75, 4999.911
331.96, 5151.461
332.17, 5615.121
332.39, 5110.501
332.60, 5033.088
332.81, 4974.516
333.02, 5195.697
333.23, 5167.435
333.45, 5142.040
333.66, 5244.848
333.87, 5470.944
334.08, 5392.711
334.29, 5269.833
334.51, 5371.822
334.72, 5615.940
334.93, 5583.582
335.14, 5388.206
335.35, 5357.077
335.57, 5511.494
335.78, 5630.276
335.99, 5422.202
336.20, 5243.210
336.41, 5560.645
336.63, 5974.334
336.84, 5434.080
337.05, 5740.047
337.26, 6058.301
337.47, 5728.169
337.69, 5804.763
337.90, 5658.947
338.11, 6032.497
338.32, 6316.755
338.53, 5722.434
338.74, 5755.202
338.96, 6277.843
339.17, 6496.157
339.38, 6326.585
339.59, 6081.648
339.80, 6334.367
340.01, 6499.434
340.23, 6255.725
340.44, 5989.899
340.65, 6501.482
340.86, 6409.733
341.07, 6167.253
341.28, 6266.375
341.50, 6630.504
341.71, 6478.135
341.92, 6434.308
342.13, 6447.825
342.34, 6640.743
342.55, 6521.142
342.77, 6448.234
342.98, 6458.474
343.19, 6856.190
343.40, 6904.112
343.61, 6641.972
343.82, 6755.020
344.03, 6741.504
344.25, 7151.916
344.46, 6660.814
344.67, 6924.592
344.88, 6988.898
345.09, 7180.998
345.30, 6892.234
345.51, 7031.086
345.73, 7277.662
345.94, 7185.503
346.15, 7196.972
346.36, 7071.636
346.57, 7305.514
346.78, 7150.688
346.99, 7159.699
347.21, 7299.370
347.42, 7243.665
347.63, 7298.141
347.84, 7242.437
348.05, 7167.481
348.26, 7385.794
348.47, 7286.263
348.68, 7159.699
348.89, 7353.437
349.11, 7546.765
349.32, 7619.263
349.53, 7086.791
349.74, 7434.536
349.95, 7301.418
350.16, 7692.171
350.37, 7289.950
350.58, 7535.706
350.79, 7761.392
351.01, 7796.207
351.22, 7593.459
351.43, 7467.304
351.64, 7882.632
351.85, 7843.720
352.06, 7551.680
352.27, 7611.071
352.48, 7812.591
352.69, 8102.174
352.90, 7665.547
353.12, 7759.344
353.33, 8003.462
353.54, 7862.562
353.75, 7857.646
353.96, 7819.554
354.17, 8051.794
354.38, 8322.126
354.59, 7927.687
354.80, 7984.621
355.01, 8122.244
355.22, 8252.904
355.43, 8102.584
355.64, 8290.587
355.86, 8468.760
356.07, 8573.207
356.28, 8331.956
356.49, 8016.978
356.70, 8484.325
356.91, 8875.897
357.12, 8560.509
357.33, 8367.591
357.54, 8778.004
357.75, 8767.764
357.96, 8396.262
358.17, 8507.672
358.38, 8794.387
358.59, 8864.428
358.80, 8691.579
359.02, 8653.078
359.23, 8818.553
359.44, 9140.085
359.65, 8744.417
359.86, 9124.520
360.07, 9118.786
360.28, 8886.546
360.49, 9099.944
360.70, 9168.347
360.91, 9278.937
361.12, 9336.280
361.33, 9235.929
361.54, 9291.225
361.75, 9678.291
361.96, 9591.866
362.17, 9627.501
362.38, 9525.512
362.59, 10137.036
362.80, 9813.457
363.01, 9561.147
363.22, 9611.527
363.43, 9522.645
363.64, 10092.800
363.85, 9540.258
364.06, 9863.427
364.27, 10049.792
364.48, 10227.146
364.69, 9803.626
364.90, 9772.497
365.11, 10156.696
365.33, 10275.478
365.54, 9941.660
365.75, 10240.253
365.96, 10309.065
366.17, 10294.729
366.38, 10080.921
366.59, 10137.445
366.80, 10062.080
367.01, 10875.124
367.22, 9728.671
367.43, 10176.357
367.64, 10476.999
367.85, 10523.692
368.06, 10042.010
368.27, 10157.925
368.48, 10805.902
368.69, 10150.962
368.90, 10350.844
369.11, 10294.729
369.32, 10796.891
369.53, 10454.471
369.74, 10256.637
369.94, 10275.069
370.15, 10542.943
370.36, 10912.806
370.57, 10161.611
370.78, 10446.279
370.99, 10686.301
371.20, 10899.699
371.41, 10518.368
371.62, 10624.043
371.83, 10713.334
372.04, 10649.028
372.25, 10494.201
372.46, 10724.803
372.67, 10728.489
372.88, 11122.518
373.09, 10486.010
373.30, 10627.729
373.51, 10708.829
373.72, 11076.644
373.93, 10907.482
374.14, 10663.773
374.35, 11047.563
374.56, 11362.540
374.77, 11059.441
374.98, 10769.448
375.19, 11251.950
375.40, 11326.906
375.61, 11014.795
375.82, 11259.323
376.03, 11183.957
376.23, 11298.644
376.44, 11139.721
376.65, 10967.692
376.86, 11113.917
377.07, 11512.452
377.28, 11346.976
377.49, 11161.020
377.70, 11610.754
377.91, 11385.887
378.12, 11210.991
378.33, 11289.223
378.54, 11252.360
378.75, 11746.330
378.96, 11209.352
379.17, 11333.459
379.37, 11702.093
379.58, 11511.223
379.79, 11333.459
380.00, 11367.455
380.21, 11619.765
380.42, 11777.459
380.63, 11621.403
380.84, 11654.171
381.05, 11938.429
381.26, 12005.193
381.47, 11586.998
381.68, 11966.281
381.89, 12113.735
382.09, 11681.204
382.30, 11981.846
382.51, 11811.455
382.72, 12251.768
382.93, 11956.861
383.14, 11686.529
383.35, 12187.052
383.56, 12115.374
383.77, 12357.443
383.98, 12019.119
384.18, 12239.890
384.39, 12435.266
384.60, 12464.347
384.81, 11965.872
385.02, 11864.702
385.23, 12164.115
385.44, 12516.366
385.65, 12344.746
385.86, 12012.156
386.06, 12726.078
386.27, 12663.000
386.48, 12330.820
386.69, 12235.794
386.90, 12224.325
387.11, 12747.377
387.32, 12338.193
387.53, 12503.668
387.73, 12625.727
387.94, 12913.262
388.15, 12560.192
388.36, 12430.761
388.57, 13010.336
388.78, 12891.144
388.99, 12718.705
389.20, 12228.831
389.40, 13350.299
389.61, 12804.310
389.82, 12538.893
390.03, 12620.812
390.24, 13060.716
390.45, 12658.904
390.66, 12854.690
390.86, 12531.521
391.07, 12676.517
391.28, 12916.129
391.49, 12661.772
391.70, 12794.480
391.91, 12868.207
392.12, 13327.771
392.32, 12634.738
392.53, 13057.030
392.74, 13235.612
392.95, 13316.712
393.16, 12880.904
393.37, 12820.694
393.57, 13067.679
393.78, 13176.221
393.99, 13414.195
394.20, 13173.354
394.41, 13578.033
394.62, 13343.745
394.82, 13514.546
395.03, 13354.804
395.24, 13605.066
395.45, 13275.753
395.66, 13296.642
395.87, 13261.826
396.07, 13480.959
396.28, 13494.476
396.49, 13966.328
396.70, 13353.166
396.91, 13539.531
397.11, 13856.557
397.32, 13084.063
397.53, 13501.029
397.74, 13785.287
397.95, 13639.062
398.16, 13240.118
398.36, 13782.010
398.57, 13863.520
398.78, 13746.785
398.99, 13575.166
399.20, 13523.557
399.40, 13082.834
399.61, 14085.519
399.82, 13508.402
400.03, 13569.431
400.24, 13876.217
400.44, 13634.966
400.65, 13578.033
400.86, 13757.025
401.07, 13958.545
401.27, 14085.519
401.48, 13680.022
401.69, 13449.011
401.90, 14426.301
402.11, 13943.800
402.31, 13972.472
402.52, 13940.933
402.73, 13883.590
402.94, 13894.649
403.15, 13818.464
403.35, 13724.667
403.56, 14429.169
403.77, 14088.796
403.98, 13989.675
404.18, 13876.627
404.39, 14367.320
404.60, 14254.272
404.81, 14229.287
405.01, 14228.468
405.22, 14565.154
405.43, 14714.655
405.64, 14677.792
405.85, 14430.397
406.05, 14856.375
406.26, 14805.585
406.47, 14713.017
406.68, 14705.235
406.88, 15605.931
407.09, 14843.678
407.30, 14357.899
407.51, 14311.206
407.71, 15559.238
407.92, 14262.464
408.13, 14530.748
408.34, 14783.467
408.54, 14748.652
408.75, 14625.364
408.96, 15569.887
409.16, 15093.530
409.37, 15156.607
409.58, 15313.482
409.79, 15331.504
409.99, 15238.116
410.20, 15613.304
410.41, 14832.209
410.62, 14668.371
410.82, 15138.995
411.03, 15728.400
411.24, 15373.282
411.45, 15136.127
411.65, 15065.268
411.86, 15317.168
412.07, 15484.282
412.27, 15353.212
412.48, 15310.205
412.69, 15311.843
412.90, 16061.809
413.10, 15159.065
413.31, 15336.419
413.52, 15528.928
413.72, 15144.319
413.93, 15424.891
414.14, 15017.345
414.35, 15512.544
414.55, 15820.559
414.76, 15343.791
414.97, 15508.858
415.17, 15527.699
415.38, 15600.607
415.59, 15161.113
415.79, 15533.024
416.00, 16035.186
416.21, 16064.676
416.41, 15495.751
416.62, 14927.644
416.83, 16210.082
417.04, 16056.075
417.24, 15571.935
417.45, 15404.821
417.66, 15784.105
417.86, 15918.861
418.07, 15358.537
418.28, 15748.061
418.48, 16220.732
418.69, 15889.780
418.90, 15971.289
419.10, 15765.263
419.31, 15995.046
419.52, 16047.064
419.72, 15737.411
419.93, 15906.164
420.14, 16403.820
420.34, 16154.377
420.55, 15557.599
420.76, 16199.023
420.96, 15828.750
421.17, 15992.588
421.38, 15777.551
421.58, 15990.130
421.79, 16325.178
422.00, 16263.329
422.20, 15632.145
422.41, 15771.817
422.62, 15931.149
422.82, 16212.949
423.03, 15753.795
423.24, 16138.403
423.44, 15718.979
423.65, 15724.714
423.85, 15850.049
424.06, 15929.920
424.27, 16381.702
424.47, 16200.252
424.68, 16343.200
424.89, 16337.876
425.09, 16232.610
425.30, 16013.477
425.51, 15899.201
425.71, 15886.094
425.92, 16045.426
426.12, 16794.573
426.33, 15945.485
426.54, 15535.072
426.74, 16148.643
426.95, 16378.835
427.16, 15473.223
427.36, 16867.480
427.57, 16180.182
427.77, 16842.495
427.98, 16206.805
428.19, 16643.023
428.39, 16379.654
428.60, 16655.720
428.81, 16588.137
429.01, 15896.333
429.22, 16520.145
429.42, 16259.643
429.63, 16474.270
429.84, 16516.458
430.04, 16932.606
430.25, 16960.048
430.45, 16143.728
430.66, 17080.879
430.87, 16201.481
431.07, 16386.208
431.28, 16643.842
431.48, 16543.492
431.69, 16900.657
431.90, 16417.746
432.10, 17389.712
432.31, 16595.100
432.51, 17062.856
432.72, 17090.299
432.92, 17127.982
433.13, 16720.436
433.34, 16926.052
433.54, 17246.354
433.75, 16975.613
433.95, 16758.938
434.16, 17579.764
434.37, 16910.897
434.57, 17102.177
434.78, 17142.318
434.98, 17456.886
435.19, 17236.524
435.39, 17821.834
435.60, 17213.587
435.81, 17778.826
436.01, 17384.388
436.22, 16810.547
436.42, 17404.458
436.63, 18334.235
436.83, 18195.793
437.04, 17814.051
437.24, 17651.852
437.45, 17947.989
437.66, 17577.306
437.86, 17185.735
438.07, 17968.059
438.27, 17815.690
438.48, 17722.302
438.68, 17633.011
438.89, 17984.033
439.09, 18048.339
439.30, 18192.516
439.50, 17078.831
439.71, 18013.524
439.92, 17840.675
440.12, 17855.011
440.33, 17334.827
440.53, 18203.165
440.74, 17964.372
440.94, 17825.930
441.15, 17594.509
441.35, 17710.424
441.56, 17899.247
441.76, 18011.066
441.97, 17661.273
442.17, 18180.228
442.38, 17518.325
442.58, 17850.096
442.79, 17136.583
443.00, 17499.893
443.20, 18110.188
443.41, 17335.236
443.61, 17181.229
443.82, 17538.395
444.02, 17343.838
444.23, 17489.244
444.43, 17284.447
444.64, 17231.199
444.84, 17632.192
445.05, 17220.140
445.25, 17293.867
445.46, 17603.520
445.66, 16967.012
445.87, 17026.812
446.07, 17018.620
446.28, 17304.107
446.48, 17687.896
446.69, 17092.757
446.89, 17247.583
447.10, 17422.070
447.30, 17711.243
447.51, 17565.838
447.71, 18087.250
447.92, 17659.225
448.12, 18252.726
448.33, 17789.066
448.53, 17574.849
448.73, 18041.376
448.94, 19020.715
449.14, 18478.412
449.35, 18388.711
449.55, 18257.641
449.76, 18567.704
449.96, 18935.109
450.17, 18533.708
450.37, 18987.947
450.58, 18927.737
450.78, 18938.796
450.99, 18757.755
451.19, 18792.161
451.40, 18839.674
451.60, 18978.526
451.81, 19168.988
452.01, 18693.449
452.21, 18763.080
452.42, 18691.811
452.62, 17952.904
452.83, 18327.682
453.03, 18593.918
453.24, 18410.420
453.44, 18258.051
453.65, 18121.656
453.85, 18667.235
454.06, 18010.656
454.26, 18173.265
454.46, 18180.228
454.67, 17967.239
454.87, 18260.509
455.08, 18156.881
455.28, 17466.716
455.49, 18656.176
455.69, 18222.007
455.89, 17891.874
456.10, 17623.590
456.30, 18595.147
456.51, 18190.878
456.71, 17921.365
456.92, 17978.708
457.12, 18751.611
457.32, 18004.512
457.53, 18207.671
457.73, 18417.383
457.94, 18833.940
458.14, 18346.114
458.35, 18212.176
458.55, 17889.417
458.75, 18674.608
458.96, 18949.855
459.16, 18353.077
459.37, 18723.759
459.57, 18502.578
459.77, 18552.549
459.98, 18362.088
460.18, 18815.918
460.39, 19011.294
460.59, 18860.563
460.79, 19175.951
461.00, 18634.877
461.20, 19325.043
461.41, 19493.386
461.61, 19352.895
461.81, 19207.899
462.02, 19413.515
462.22, 20275.300
462.43, 19968.924
462.63, 19482.736
462.83, 20252.773
463.04, 20204.031
463.24, 20453.883
463.45, 20480.097
463.65, 20429.307
463.85, 20855.285
464.06, 20376.470
464.26, 20923.687
464.46, 21349.665
464.67, 21586.410
464.87, 21325.499
465.08, 21085.886
465.28, 22103.317
465.48, 22042.288
465.69, 21995.594
465.89, 21846.092
466.09, 23186.283
466.30, 22964.693
466.50, 22614.900
466.71, 23354.626
466.91, 23719.574
467.11, 24359.769
467.32, 23883.412
467.52, 23998.507
467.72, 24582.998
467.93, 24029.637
468.13, 24871.352
468.33, 24133.673
468.54, 25416.521
468.74, 24912.311
468.94, 24898.385
469.15, 24512.138
469.35, 24619.861
469.55, 24908.215
469.76, 24453.156
469.96, 24383.935
470.17, 24093.533
470.37, 24854.558
470.57, 24449.061
470.78, 24442.097
470.98, 25035.189
471.18, 24907.806
471.39, 24542.858
471.59, 24804.178
471.79, 24966.377
471.99, 24719.392
472.20, 24946.717
472.40, 24825.477
472.60, 24528.931
472.81, 25114.650
473.01, 25331.735
473.21, 25006.108
473.42, 25310.027
473.62, 25346.890
473.82, 25421.436
474.03, 24904.529
474.23, 25295.691
474.43, 25090.075
474.64, 24227.470
474.84, 24694.817
475.04, 24734.138
475.25, 24403.596
475.45, 24415.883
475.65, 23896.928
475.85, 24091.076
476.06, 24304.474
476.26, 23912.493
476.46, 23950.175
476.67, 23982.943
476.87, 24144.732
477.07, 24043.563
477.28, 23787.157
477.48, 24366.323
477.68, 24275.393
477.88, 23934.611
478.09, 24295.053
478.29, 24526.474
478.49, 25111.374
478.70, 24422.437
478.90, 24779.193
479.10, 25228.927
479.30, 25656.133
479.51, 25055.669
479.71, 25229.337
479.91, 26236.937
480.11, 26255.369
480.32, 26328.686
480.52, 26499.487
480.72, 26369.646
480.93, 26936.523
481.13, 26601.476
481.33, 27126.984
481.53, 27449.335
481.74, 27744.652
481.94, 27730.726
482.14, 27160.162
482.34, 27838.858
482.55, 28016.622
482.75, 27581.224
482.95, 27360.043
483.15, 27994.504
483.36, 27397.726
483.56, 28297.194
483.76, 27385.029
483.96, 27596.789
484.17, 27675.021
484.37, 27174.497
484.57, 27326.866
484.77, 27542.313
484.98, 27446.468
485.18, 26979.531
485.38, 26884.915
485.58, 27537.807
485.79, 26947.992
485.99, 26599.837
486.19, 26727.631
486.39, 27425.988
486.59, 26592.465
486.80, 26599.428
487.00, 26274.210
487.20, 26895.974
487.40, 26598.609
487.61, 26473.682
487.81, 26155.838
488.01, 26504.812
488.21, 26779.649
488.41, 26533.074
488.62, 26645.712
488.82, 26331.553
489.02, 26918.911
489.22, 26665.782
489.43, 26906.213
489.63, 27400.184
489.83, 27219.143
490.03, 27181.460
490.23, 27040.560
490.44, 27598.017
490.64, 27623.003
490.84, 27934.294
491.04, 27900.297
491.24, 28193.567
491.45, 28544.998
491.65, 28213.227
491.85, 28138.681
492.05, 29054.123
492.25, 28595.378
492.45, 28389.352
492.66, 28162.847
492.86, 28505.677
493.06, 28649.444
493.26, 28382.389
493.46, 28271.799
493.67, 28995.551
493.87, 27996.142
494.07, 27957.641
494.27, 27777.419
494.47, 27799.947
494.67, 27836.810
494.88, 27298.604
495.08, 27336.287
495.28, 27547.637
495.48, 27184.328
495.68, 26863.616
495.89, 26684.214
496.09, 26846.003
496.29, 26868.121
496.49, 26781.697
496.69, 26401.594
496.89, 26121.022
497.09, 26597.789
497.30, 26226.697
497.50, 26044.019
497.70, 26349.576
497.90, 26687.900
498.10, 25880.591
498.30, 26327.867
498.51, 25766.724
498.71, 25747.063
498.91, 25658.181
499.11, 25620.908
499.31, 25831.030
499.51, 26001.830
499.71, 25486.152
499.92, 25304.702
500.12, 25546.772
500.32, 25537.761
500.52, 25744.196
500.72, 25135.540
500.92, 25613.126
501.12, 25767.133
501.32, 25009.794
501.53, 25386.621
501.73, 25677.023
501.93, 25648.761
502.13, 25060.994
502.33, 25084.340
502.53, 25407.510
502.73, 25307.979
502.93, 25054.850
503.14, 25238.757
503.34, 25251.045
503.54, 25114.650
503.74, 25107.687
503.94, 24775.097
504.14, 25352.215
504.34, 24924.189
504.54, 24853.330
504.74, 24673.927
504.95, 24877.496
505.15, 25308.388
505.35, 24349.529
505.55, 24685.396
505.75, 24575.215
505.95, 24802.540
506.15, 24335.193
506.35, 24458.072
506.55, 24414.245
506.75, 24799.673
506.95, 24267.611
507.16, 24159.068
507.36, 24539.990
507.56, 24613.717
507.76, 24428.990
507.96, 24269.658
508.16, 24281.946
508.36, 24407.282
508.56, 24143.913
508.76, 24374.924
508.96, 24336.832
509.16, 24719.802
509.36, 24150.876
509.57, 24281.946
509.77, 24368.780
509.97, 24245.902
510.17, 24293.415
510.37, 24521.559
510.57, 24212.315
510.77, 24166.031
510.97, 24404.824
511.17, 24056.670
511.37, 24781.651
511.57, 24530.160
511.77, 24138.588
511.97, 24202.076
512.17, 24571.939
512.37, 24764.857
512.57, 24464.216
512.78, 24202.485
512.98, 24517.872
513.18, 24376.972
513.38, 24153.743
513.58, 24300.378
513.78, 24710.791
513.98, 24562.108
514.18, 24555.555
514.38, 24333.555
514.58, 24196.341
514.78, 24537.942
514.98, 24524.016
515.18, 24510.090
515.38, 24675.566
515.58, 24640.341
515.78, 24329.050
515.98, 24503.536
516.18, 24916.817
516.38, 25085.979
516.58, 24742.330
516.78, 24445.784
516.98, 24689.082
517.18, 24908.215
517.38, 24709.562
517.58, 25037.237
517.78, 24864.798
517.98, 25337.469
518.18, 24888.145
518.38, 25145.780
518.58, 25552.916
518.78, 25050.344
518.98, 25227.698
519.18, 24932.381
519.38, 25275.621
519.58, 25366.551
519.78, 25105.230
519.98, 25281.355
520.18, 25459.528
520.38, 25494.344
520.58, 25505.403
520.78, 25299.377
520.98, 25713.886
521.18, 25533.665
521.38, 25517.691
521.58, 25363.683
521.78, 25773.687
521.98, 25601.248
522.18, 25437.410
522.38, 25775.735
522.58, 25214.182
522.78, 25647.941
522.98, 25550.458
523.18, 25388.669
523.38, 25838.403
523.58, 25658.591
523.78, 25268.248
523.98, 25559.469
524.18, 25834.716
524.38, 25829.391
524.58, 25669.240
524.78, 25596.742
524.98, 26204.170
525.18, 25834.716
525.38, 25751.159
525.58, 25860.111
525.78, 26059.174
525.98, 25892.469
526.18, 25737.233
526.38, 25487.790
526.58, 25829.801
526.78, 25622.547
526.98, 25702.008
527.17, 25495.573
527.37, 25577.901
527.57, 25626.233
527.77, 25362.045
527.97, 25633.606
528.17, 25466.082
528.37, 25634.015
528.57, 25466.901
528.77, 25314.532
528.97, 25646.713
529.17, 25530.388
529.37, 25384.573
529.57, 25155.610
529.77, 25160.934
529.97, 25605.344
530.17, 25187.148
530.36, 25015.529
530.56, 25126.529
530.76, 24910.263
530.96, 24853.739
531.16, 24827.525
531.36, 25250.636
531.56, 25254.731
531.76, 24421.618
531.96, 24663.688
532.16, 25043.381
532.36, 24808.274
532.56, 24752.979
532.76, 24779.193
532.95, 24832.031
533.15, 24959.005
533.35, 24789.433
533.55, 24599.791
533.75, 25305.931
533.95, 24764.038
534.15, 24833.669
534.35, 24575.625
534.55, 25020.853
534.75, 24732.499
534.94, 24474.865
535.14, 24383.935
535.34, 24594.466
535.54, 24492.068
535.74, 24687.444
535.94, 24336.832
536.14, 24469.131
536.34, 24723.898
536.54, 24389.669
536.73, 24079.607
536.93, 24433.086
537.13, 24534.666
537.33, 24195.522
537.53, 23818.286
537.73, 23904.710
537.93, 23866.618
538.13, 24101.315
538.32, 23739.235
538.52, 23740.054
538.72, 23772.002
538.92, 23559.013
539.12, 23551.231
539.32, 23930.515
539.52, 23752.342
539.72, 23685.987
539.91, 23313.667
540.11, 23491.430
540.31, 23560.242
540.51, 23301.788
540.71, 23562.700
540.91, 23901.843
541.11, 23472.179
541.30, 23155.973
541.50, 23028.999
541.70, 23115.014
541.90, 23220.279
542.10, 23062.176
542.30, 22951.176
542.49, 23406.644
542.69, 23164.575
542.89, 22884.003
543.09, 23191.608
543.29, 23529.523
543.49, 23557.785
543.68, 23067.501
543.88, 22975.342
544.08, 23219.050
544.28, 23169.899
544.48, 23203.076
544.68, 22862.704
544.87, 23261.239
545.07, 23002.785
545.27, 22871.305
545.47, 22938.069
545.67, 22920.457
545.87, 22952.405
546.06, 22846.320
546.26, 22680.025
546.46, 22930.696
546.66, 22998.689
546.86, 22985.172
547.05, 22816.010
547.25, 22884.003
547.45, 23333.327
547.65, 22596.468
547.85, 22180.321
548.04, 23040.058
548.24, 22696.409
548.44, 22367.096
548.64, 22454.749
548.84, 22872.125
549.03, 22224.147
549.23, 22383.479
549.43, 22236.845
549.63, 22580.084
549.83, 22525.608
550.02, 22354.398
550.22, 22285.586
550.42, 22465.398
550.62, 22561.243
550.82, 22023.037
551.01, 22086.524
551.21, 22440.822
551.41, 22781.604
551.61, 21905.074
551.80, 22402.730
552.00, 22246.265
552.20, 22427.306
552.40, 21971.018
552.60, 22371.601
552.79, 22380.202
552.99, 22313.848
553.19, 22204.487
553.39, 21913.266
553.58, 22327.774
553.78, 21829.708
553.98, 22004.195
554.18, 21976.343
554.37, 21703.963
554.57, 21838.310
554.77, 22002.557
554.97, 21904.664
555.16, 22240.531
555.36, 22394.129
555.56, 21698.229
555.76, 21619.177
555.95, 22324.088
556.15, 21955.044
556.35, 21749.019
556.55, 21559.786
556.74, 21617.949
556.94, 21860.018
557.14, 21610.166
557.34, 21545.450
557.53, 22026.314
557.73, 21714.613
557.93, 21575.351
558.13, 21349.665
558.32, 21568.388
558.52, 21792.026
558.72, 21298.875
558.92, 21643.753
559.11, 21854.284
559.31, 21724.443
559.51, 21674.882
559.70, 21508.997
559.90, 21735.502
560.10, 21501.214
560.30, 21445.510
560.49, 21432.403
560.69, 21482.783
560.89, 21763.354
561.08, 21239.894
561.28, 21139.953
561.48, 21479.506
561.68, 21455.749
561.87, 21120.292
562.07, 21157.565
562.27, 21217.775
562.46, 21233.750
562.66, 21234.159
562.86, 20824.565
563.05, 21269.384
563.25, 20882.728
563.45, 20713.975
563.65, 20872.898
563.84, 21273.890
564.04, 20858.562
564.24, 20750.019
564.43, 20676.702
564.63, 21058.853
564.83, 20835.215
565.02, 20632.056
565.22, 20639.429
565.42, 20623.864
565.61, 20832.348
565.81, 20620.178
566.01, 20659.090
566.20, 20838.492
566.40, 20532.525
566.60, 20584.134
566.79, 20321.584
566.99, 21099.812
567.19, 20788.112
567.38, 20534.983
567.58, 20339.197
567.78, 20719.300
567.97, 20571.846
568.17, 20392.854
568.37, 20454.702
568.56, 21142.410
568.76, 20606.252
568.96, 20467.400
569.15, 20573.075
569.35, 21936.612
569.55, 21073.189
569.74, 20445.691
569.94, 20381.385
570.14, 20827.023
570.33, 20517.780
570.53, 20213.452
570.73, 20315.850
570.92, 20379.337
571.12, 20422.344
571.31, 19863.658
571.51, 20029.954
571.71, 20450.197
571.90, 20479.278
572.10, 20045.109
572.30, 20063.131
572.49, 20631.647
572.69, 20449.787
572.88, 20150.784
573.08, 19695.315
573.28, 20401.865
573.47, 20039.374
573.67, 19617.083
573.87, 19666.644
574.06, 19922.230
574.26, 20020.123
574.45, 19730.541
574.65, 19458.570
574.85, 20035.278
575.04, 19780.921
575.24, 19747.334
575.44, 19475.364
575.63, 20017.256
575.83, 19599.471
576.02, 19490.109
576.22, 19498.301
576.42, 19774.367
576.61, 19849.732
576.81, 19358.220
577.00, 19540.489
577.20, 19755.116
577.40, 19902.980
577.59, 19390.987
577.79, 19440.139
577.98, 19782.969
578.18, 19602.747
578.37, 19551.548
578.57, 19264.423
578.77, 19386.072
578.96, 19376.242
579.16, 19353.714
579.35, 18986.309
579.55, 19426.622
579.75, 19153.013
579.94, 19277.530
580.14, 19120.655
580.33, 19756.345
580.53, 19365.592
580.72, 19140.316
580.92, 19454.474
581.12, 19148.917
581.31, 19390.987
581.51, 19338.559
581.70, 19281.216
581.90, 19811.640
582.09, 19171.035
582.29, 18862.202
582.48, 19091.984
582.68, 19443.415
582.88, 19470.858
583.07, 19052.253
583.27, 18882.681
583.46, 19371.327
583.66, 19481.508
583.85, 19276.711
584.05, 19066.179
584.24, 19825.566
584.44, 19528.201
584.63, 18979.346
584.83, 19050.205
585.03, 19529.840
585.22, 19143.593
585.42, 18800.763
585.61, 18947.397
585.81, 19294.323
586.00, 19092.803
586.20, 18842.132
586.39, 18815.508
586.59, 19055.120
586.78, 18940.434
586.98, 18899.065
587.17, 18817.966
587.37, 19060.855
587.56, 19308.249
587.76, 18662.320
587.95, 18808.955
588.15, 18815.508
588.34, 19080.925
588.54, 18551.320
588.74, 18561.560
588.93, 18764.718
589.13, 18867.936
589.32, 18534.117
589.52, 18212.996
589.71, 19082.154
589.91, 18495.206
590.10, 18234.704
590.30, 18396.494
590.49, 18551.320
590.69, 18534.117
590.88, 18267.472
591.08, 18165.892
591.27, 18537.394
591.47, 18226.922
591.66, 18031.546
591.85, 18216.682
592.05, 18564.427
592.24, 18557.464
592.44, 18133.944
592.63, 17795.210
592.83, 18364.955
593.02, 18255.593
593.22, 17891.874
593.41, 17752.612
593.61, 18178.590
593.80, 18552.549
594.00, 17855.011
594.19, 17807.907
594.39, 17939.797
594.58, 17871.804
594.78, 17619.904
594.97, 17739.505
595.17, 17936.930
595.36, 17950.446
595.56, 17549.044
595.75, 17517.915
595.94, 17972.564
596.14, 17795.620
596.33, 17472.860
596.53, 17213.177
596.72, 17764.491
596.92, 17651.852
597.11, 17332.779
597.31, 17643.660
597.50, 17744.011
597.69, 17830.435
597.89, 17370.461
598.08, 16971.107
598.28, 17879.996
598.47, 17517.096
598.67, 17357.764
598.86, 17151.738
599.06, 17553.140
599.25, 17156.653
599.44, 17023.126
599.64, 17086.203
599.83, 17271.749
600.03, 17173.856
600.22, 16914.993
600.42, 16862.565
600.61, 16962.916
600.80, 16847.001
601.00, 16779.827
601.19, 16547.178
601.39, 17016.982
601.58, 16694.222
601.78, 16592.643
601.97, 16589.776
602.16, 16798.668
602.36, 16612.303
602.55, 16677.019
602.75, 16259.233
602.94, 16718.388
603.13, 16786.790
603.33, 16224.008
603.52, 16132.669
603.72, 16745.831
603.91, 16254.728
604.10, 16180.182
604.30, 16111.780
604.49, 16424.709
604.69, 16373.920
604.88, 15925.824
605.07, 16035.186
605.27, 16156.835
605.46, 16063.448
605.66, 16080.241
605.85, 15770.179
606.04, 16368.595
606.24, 16353.850
606.43, 15758.300
606.62, 15840.219
606.82, 16050.341
607.01, 16086.795
607.21, 15688.669
607.40, 15839.810
607.59, 15935.654
607.79, 15743.555
607.98, 15698.909
608.17, 15465.441
608.37, 15897.972
608.56, 16337.466
608.76, 15430.216
608.95, 15469.946
609.14, 16070.411
609.34, 15846.363
609.53, 15535.481
609.72, 15347.887
609.92, 15719.389
610.11, 15806.632
610.30, 15405.231
610.50, 15399.087
610.69, 15371.234
610.88, 15769.359
611.08, 15318.806
611.27, 15213.131
611.46, 15739.869
611.66, 15480.596
611.85, 15203.301
612.04, 15417.109
612.24, 15712.016
612.43, 15516.640
612.62, 15059.943
612.82, 15079.194
613.01, 15490.836
613.20, 15596.101
613.40, 15271.293
613.59, 14989.493
613.78, 15629.688
613.98, 15039.054
614.17, 15186.507
614.36, 15071.002
614.56, 16230.562
614.75, 15237.297
614.94, 15118.105
615.14, 15130.393
615.33, 15716.112
615.52, 15630.098
615.72, 15245.079
615.91, 15206.987
616.10, 15627.640
616.30, 15653.854
616.49, 15293.411
616.68, 15333.961
616.88, 15859.060
617.07, 15968.832
617.26, 15370.415
617.45, 15370.825
617.65, 16187.964
617.84, 15492.064
618.03, 15469.127
618.23, 15563.743
618.42, 15825.883
618.61, 15689.489
618.80, 15596.511
619.00, 15647.300
619.19, 16171.171
619.38, 16123.658
619.58, 15738.230
619.77, 15727.171
619.96, 16155.197
620.15, 15981.529
620.35, 15836.533
620.54, 15679.658
620.73, 16020.850
620.93, 16233.429
621.12, 15741.097
621.31, 15908.212
621.50, 16174.038
621.70, 16713.883
621.89, 15890.190
622.08, 15754.204
622.27, 16429.215
622.47, 16324.768
622.66, 15760.348
622.85, 15866.433
623.04, 16119.972
623.24, 15950.809
623.43, 16081.879
623.62, 15839.810
623.81, 16168.304
624.01, 16129.802
624.20, 15756.662
624.39, 15990.950
624.58, 16026.994
624.78, 16198.204
624.97, 15682.935
625.16, 15661.636
625.35, 15864.795
625.55, 16175.676
625.74, 15639.928
625.93, 15675.972
626.12, 15798.031
626.32, 15582.585
626.51, 15444.961
626.70, 15390.895
626.89, 15584.223
627.09, 15744.374
627.28, 15340.105
627.47, 15403.183
627.66, 15853.326
627.85, 15573.164
628.05, 15265.149
628.24, 15215.998
628.43, 15745.193
628.62, 15697.271
628.82, 15283.991
629.01, 15231.972
629.20, 15504.762
629.39, 15477.729
629.58, 14935.426
629.78, 14994.408
629.97, 15319.625
630.16, 15066.087
630.35, 14942.799
630.54, 14900.611
630.74, 15070.592
630.93, 15022.670
631.12, 14855.556
631.31, 14634.785
631.50, 15064.039
631.70, 15194.699
631.89, 14595.054
632.08, 14715.065
632.27, 14604.884
632.46, 15048.884
632.65, 14577.442
632.85, 14342.335
633.04, 14710.969
633.23, 14844.906
633.42, 14341.925
633.61, 14345.611
633.81, 14615.124
634.00, 14452.925
634.19, 14221.914
634.38, 14217.818
634.57, 14227.648
634.76, 14282.124
634.96, 13992.951
635.15, 14016.298
635.34, 14427.940
635.53, 14389.848
635.72, 14035.549
635.91, 13890.143
636.11, 14326.770
636.30, 14317.759
636.49, 13945.848
636.68, 13690.671
636.87, 13939.704
637.06, 14482.416
637.26, 13718.523
637.45, 13745.557
637.64, 14009.745
637.83, 14085.519
638.02, 13663.228
638.21, 13603.018
638.40, 14299.737
638.60, 14190.785
638.79, 13632.509
638.98, 13382.247
639.17, 13781.191
639.36, 13476.863
639.55, 13407.642
639.74, 13326.542
639.93, 13551.409
640.13, 13570.660
640.32, 13165.572
640.51, 13032.454
640.70, 13493.657
640.89, 13481.778
641.08, 13020.576
641.27, 12982.483
641.46, 13294.594
641.66, 13444.505
641.85, 12919.406
642.04, 12785.469
642.23, 13345.793
642.42, 13039.827
642.61, 12873.941
642.80, 12581.082
642.99, 12998.867
643.18, 13269.609
643.38, 12802.672
643.57, 12746.557
643.76, 12851.823
643.95, 13167.620
644.14, 12801.443
644.33, 12724.849
644.52, 13312.206
644.71, 12914.491
644.90, 12668.735
645.09, 12558.144
645.29, 12971.834
645.48, 12831.753
645.67, 12698.635
645.86, 12669.144
646.05, 13052.114
646.24, 13249.948
646.43, 12592.550
646.62, 12638.834
646.81, 12814.960
647.00, 12845.270
647.19, 12474.178
647.38, 12675.288
647.57, 12892.782
647.77, 12943.572
647.96, 12643.749
648.15, 12431.580
648.34, 13166.391
648.53, 13141.815
648.72, 12516.366
648.91, 12717.886
649.10, 13128.299
649.29, 12549.543
649.48, 12405.776
649.67, 12547.905
649.86, 13106.590
650.05, 12469.263
650.24, 12438.543
650.43, 12510.632
650.62, 12518.823
650.81, 12834.620
651.01, 12147.322
651.20, 12091.208
651.39, 12515.547
651.58, 12554.458
651.77, 11873.713
651.96, 12132.576
652.15, 12352.528
652.34, 12066.222
652.53, 12062.536
652.72, 11885.591
652.91, 12255.455
653.10, 12107.591
653.29, 11705.370
653.48, 11625.090
653.67, 12139.540
653.86, 12009.698
654.05, 11672.603
654.24, 11636.149
654.43, 11926.551
654.62, 11821.695
654.81, 11675.060
655.00, 11540.714
655.19, 11873.713
655.38, 11959.728
655.57, 11486.647
655.76, 11547.677
655.95, 11858.968
656.14, 11585.769
656.33, 11531.293
656.52, 11504.260
656.71, 11713.972
656.90, 11676.699
657.09, 11412.511
657.28, 11348.614
657.47, 11632.053
657.66, 11837.259
657.85, 11263.009
658.04, 11448.555
658.23, 11468.215
658.42, 11711.924
658.61, 11290.042
658.80, 11180.271
658.99, 11498.525
659.18, 11956.861
659.37, 11032.817
659.56, 11136.035
659.75, 11564.470
659.94, 11317.075
660.13, 10966.053
660.32, 11176.175
660.51, 11427.666
660.70, 11268.334
660.89, 11204.847
661.08, 10931.238
661.27, 11473.131
661.46, 11331.411
661.65, 10955.404
661.84, 11115.555
662.03, 11286.765
662.22, 11395.308
662.41, 10925.504
662.60, 10844.404
662.78, 11091.389
662.97, 11280.212
663.16, 10967.282
663.35, 10922.227
663.54, 11213.038
663.73, 11446.097
663.92, 10825.153
664.11, 10845.633
664.30, 11042.238
664.49, 11220.002
664.68, 10791.976
664.87, 10769.448
665.06, 11209.762
665.25, 11109.821
665.44, 10836.622
665.63, 10776.412
665.82, 11084.016
666.01, 11431.352
666.19, 10724.803
666.38, 10812.046
666.57, 11441.182
666.76, 10984.076
666.95, 10927.961
667.14, 10760.847
667.33, 11122.109
667.52, 11451.832
667.71, 10957.452
667.90, 10986.533
668.09, 11278.983
668.28, 10926.323
668.46, 10633.463
668.65, 10871.028
668.84, 11421.522
669.03, 10825.153
669.22, 10692.035
669.41, 10762.076
669.60, 11376.466
669.79, 10708.009
669.98, 10732.175
670.17, 10530.655
670.35, 10922.227
670.54, 10749.788
670.73, 10509.766
670.92, 10543.353
671.11, 10836.622
671.30, 10413.512
671.49, 10451.194
671.68, 10328.316
671.87, 10913.216
672.05, 10846.042
672.24, 10311.113
672.43, 10465.530
672.62, 10598.648
672.81, 10906.662
673.00, 10465.530
673.19, 10340.194
673.38, 10677.699
673.57, 10597.829
673.75, 10644.113
673.94, 10358.626
674.13, 10651.895
674.32, 10580.216
674.51, 10363.951
674.70, 10402.862
674.89, 10311.523
675.07, 10710.057
675.26, 10621.585
675.45, 10399.995
675.64, 10725.622
675.83, 10794.434
676.02, 10523.283
676.21, 10605.201
676.39, 10560.965
676.58, 10379.925
676.77, 10047.744
676.96, 10180.453
677.15, 10410.235
677.34, 10760.028
677.52, 10130.073
677.71, 10079.693
677.90, 10488.467
678.09, 10520.825
678.28, 10109.183
678.47, 10227.556
678.65, 10434.810
678.84, 10635.921
679.03, 10003.918
679.22, 10054.707
679.41, 10232.061
679.60, 10328.316
679.78, 10126.386
679.97, 10112.460
680.16, 10564.242
680.35, 10488.467
680.54, 10368.866
680.73, 10023.988
680.91, 10533.522
681.10, 10642.884
681.29, 10259.095
681.48, 10302.102
681.67, 10658.858
681.85, 10337.327
682.04, 10223.460
682.23, 10223.460
682.42, 10448.327
682.61, 10327.497
682.79, 10290.224
682.98, 10356.578
683.17, 10585.950
683.36, 10488.058
683.55, 10332.412
683.73, 10448.327
683.92, 10510.585
684.11, 10526.559
684.30, 10377.467
684.49, 10253.360
684.67, 10486.010
684.86, 10415.969
685.05, 10116.966
685.24, 10100.991
685.42, 10597.419
685.61, 10366.818
685.80, 10114.098
685.99, 10220.183
686.18, 10305.788
686.36, 10261.962
686.55, 10243.120
686.74, 10033.818
686.93, 10216.907
687.11, 10351.663
687.30, 9847.863
687.49, 9847.863
687.68, 10252.951
687.86, 10223.050
688.05, 9847.863
688.24, 9925.276
688.43, 10418.427
688.61, 10128.844
688.80, 9837.623
688.99, 9704.505
689.18, 10358.626
689.36, 10190.283
689.55, 9657.401
689.74, 9425.162
689.93, 10070.682
690.11, 9856.054
690.30, 9702.047
690.49, 9488.239
690.68, 10178.814
690.86, 9615.623
691.05, 9398.129
691.24, 9328.498
691.43, 9622.996
691.61, 9826.973
691.80, 9269.926
691.99, 9147.867
692.17, 9590.638
692.36, 9444.822
692.55, 9251.904
692.74, 8905.387
692.92, 9243.712
693.11, 9223.232
693.30, 9140.494
693.49, 8924.229
693.67, 9080.284
693.86, 9273.612
694.05, 8947.166
694.23, 8886.136
694.42, 9378.059
694.61, 8877.945
694.79, 8817.325
694.98, 8735.406
695.17, 9226.509
695.36, 8672.328
695.54, 8687.483
695.73, 8542.897
695.92, 9000.823
696.10, 9027.037
696.29, 8453.605
696.48, 8665.365
696.66, 9258.867
696.85, 8557.642
697.04, 8375.373
697.22, 8429.030
697.41, 8930.782
697.60, 8517.092
697.79, 8293.454
697.97, 8329.498
698.16, 8834.528
698.35, 8574.845
698.53, 8335.233
698.72, 8237.750
698.91, 8852.140
699.09, 8497.022
699.28, 8267.650
699.47, 8278.709
699.65, 8246.761
699.84, 8641.199
700.03, 8172.624
700.21, 8116.100
700.40, 8271.746
700.59, 8280.347
700.77, 8058.347
700.96, 8032.953
701.15, 8624.816
701.33, 8482.277
701.52, 7867.886
701.70, 8018.617
701.89, 8537.163
702.08, 8079.237
702.26, 7816.687
702.45, 7781.052
702.64, 7945.709
702.82, 8222.185
703.01, 7915.399
703.20, 7798.665
703.38, 8524.465
703.57, 7998.137
703.76, 7934.650
703.94, 7901.473
704.13, 8097.259
704.31, 7840.034
704.50, 7966.189
704.69, 8009.196
704.87, 8104.222
705.06, 8099.307
705.25, 7848.226
705.43, 7767.126
705.62, 8149.687
705.80, 8217.679
705.99, 7892.872
706.18, 7851.503
706.36, 8083.333
706.55, 8085.381
706.73, 7921.543
706.92, 7840.034
707.11, 8338.100
707.29, 8509.720
707.48, 8047.698
707.66, 8044.012
707.85, 8075.141
708.04, 8202.934
708.22, 7935.469
708.41, 8014.111
708.59, 8422.067
708.78, 8199.657
708.97, 7686.846
709.15, 7953.491
709.34, 8275.432
709.52, 8203.753
709.71, 7955.130
709.90, 7909.665
710.08, 8537.982
710.27, 8021.484
710.45, 8023.122
710.64, 7976.838
710.82, 8425.343
711.01, 8218.908
711.20, 8066.539
711.38, 7935.060
711.57, 8322.126
711.75, 8160.336
711.94, 8192.694
712.12, 8089.886
712.31, 8310.657
712.50, 8497.842
712.68, 8012.883
712.87, 8218.908
713.05, 8385.613
713.24, 8158.288
713.42, 8011.244
713.61, 7959.635
713.79, 8521.598
713.98, 8150.506
714.17, 7937.108
714.35, 8031.724
714.54, 8205.392
714.72, 8109.137
714.91, 7966.598
715.09, 7917.038
715.28, 7957.587
715.46, 8462.616
715.65, 7733.949
715.83, 7729.444
716.02, 8259.048
716.21, 8039.097
716.39, 7792.112
716.58, 7509.492
716.76, 7796.207
716.95, 7993.632
717.13, 7424.296
717.32, 7367.363
717.50, 8032.133
717.69, 7807.676
717.87, 7360.809
718.06, 7301.009
718.24, 7460.341
718.43, 7618.034
718.61, 7317.392
718.80, 7205.573
718.98, 7529.152
719.17, 7373.097
719.35, 7301.009
719.54, 7087.610
719.72, 7287.082
719.91, 7400.130
720.09, 6973.743
720.28, 7046.241
720.46, 7258.001
720.65, 7551.680
720.83, 6951.625
721.02, 7026.581
721.20, 7391.119
721.39, 7164.614
721.57, 6835.300
721.76, 6977.839
721.94, 7136.352
722.13, 7063.444
722.31, 6953.264
722.50, 6942.614
722.68, 6965.551
722.87, 7332.957
723.05, 6802.533
723.24, 7361.628
723.42, 6994.223
723.61, 7337.053
723.79, 6672.282
723.98, 6669.415
724.16, 7245.304
724.34, 6774.681
724.53, 6786.149
724.71, 6869.297
724.90, 6887.728
725.08, 7073.274
725.27, 6672.692
725.45, 6622.312
725.64, 6802.533
725.82, 7207.212
726.01, 6454.788
726.19, 6506.806
726.38, 6822.193
726.56, 6662.452
726.74, 6709.146
726.93, 6500.253
727.11, 7362.857
727.30, 6871.754
727.48, 6610.434
727.67, 6693.581
727.85, 7026.581
728.04, 7171.167
728.22, 6743.552
728.40, 6788.607
728.59, 7019.208
728.77, 7030.677
728.96, 6669.415
729.14, 6738.636
729.33, 7547.584
729.51, 7181.407
729.69, 6981.935
729.88, 6832.433
730.06, 7196.972
730.25, 7215.813
730.43, 6854.551
730.61, 6988.489
730.80, 7234.245
730.98, 7537.344
731.17, 7058.119
731.35, 7005.282
731.54, 7248.581
731.72, 7526.285
731.90, 6989.308
732.09, 7036.821
732.27, 7575.846
732.46, 7633.189
732.64, 7039.278
732.82, 7029.858
733.01, 7441.909
733.19, 7423.887
733.38, 6870.935
733.56, 7154.374
733.74, 7425.525
733.93, 7410.780
734.11, 6986.441
734.29, 6905.341
734.48, 7328.861
734.66, 7173.215
734.85, 6738.636
735.03, 6748.876
735.21, 7070.817
735.40, 7422.658
735.58, 6752.972
735.77, 6732.083
735.95, 7133.485
736.13, 6934.422
736.32, 6583.810
736.50, 6714.470
736.68, 6739.046
736.87, 7137.581
737.05, 6560.054
737.23, 6675.559
737.42, 6938.109
737.60, 6884.452
737.79, 6582.172
737.97, 6458.884
738.15, 6954.492
738.34, 6821.374
738.52, 6554.319
738.70, 6586.677
738.89, 7009.378
739.07, 6741.913
739.25, 6598.555
739.44, 6551.862
739.62, 7036.001
739.80, 6650.574
739.99, 6333.548
740.17, 6525.238
740.35, 7122.426
740.54, 6945.072
740.72, 6425.707
740.90, 6346.655
741.09, 6526.057
741.27, 6710.374
741.45, 6461.341
741.64, 6326.995
741.82, 6701.773
742.00, 6601.422
742.19, 6367.954
742.37, 6341.740
742.55, 6500.662
742.74, 6552.271
742.92, 6264.736
743.10, 6377.784
743.29, 6709.146
743.47, 6755.430
743.65, 6174.626
743.83, 6329.043
744.02, 6475.677
744.20, 6415.876
744.38, 6073.866
744.57, 6145.954
744.75, 6272.109
744.93, 6357.305
745.12, 6148.821
745.30, 6108.272
745.48, 6923.773
745.66, 6197.153
745.85, 6048.471
746.03, 6031.268
746.21, 6521.961
746.40, 6346.246
746.58, 6074.275
746.76, 5995.224
746.94, 6578.895
747.13, 6486.736
747.31, 5992.766
747.49, 6120.969
747.68, 6363.448
747.86, 6480.592
748.04, 5964.914
748.22, 5928.460
748.41, 6415.057
748.59, 6397.035
748.77, 5797.800
748.95, 6006.692
749.14, 6071.408
749.32, 6286.445
749.50, 5853.504
749.68, 5729.807
749.87, 6072.637
750.05, 6201.659
750.23, 5789.608
750.42, 5876.032
750.60, 6055.434
750.78, 6080.829
750.96, 5826.062
751.15, 5934.604
751.33, 5806.401
751.51, 6279.072
751.69, 5839.578
751.87, 5754.383
752.06, 5898.150
752.24, 6042.737
752.42, 5716.290
752.60, 5595.051
752.79, 6265.146
752.97, 6064.445
753.15, 5675.741
753.33, 5694.991
753.52, 5903.884
753.70, 5921.906
753.88, 5586.859
754.06, 5679.837
754.24, 5826.061
754.43, 6169.301
754.61, 5574.571
754.79, 5539.346
754.97, 5833.025
755.16, 6043.556
755.34, 5676.560
755.52, 5718.748
755.70, 5939.519
755.88, 5766.261
756.07, 5626.999
756.25, 5638.468
756.43, 6061.578
756.61, 5817.050
756.79, 5840.397
756.98, 5626.589
757.16, 6057.072
757.34, 5801.076
757.52, 5723.663
757.70, 5786.331
757.89, 6271.700
758.07, 6536.707
758.25, 5853.504
758.43, 5746.191
758.61, 6178.722
758.80, 6242.618
758.98, 5915.763
759.16, 5861.287
759.34, 6417.515
759.52, 6215.176
759.70, 5966.143
759.89, 5969.419
760.07, 6242.209
760.25, 6282.349
760.43, 5936.242
760.61, 6122.198
760.79, 6397.445
760.98, 6473.220
761.16, 6323.308
761.34, 6455.198
761.52, 6544.079
761.70, 6924.182
761.88, 6827.928
762.07, 6928.688
762.25, 7609.433
762.43, 7454.197
762.61, 7328.451
762.79, 7381.699
762.97, 7799.894
763.15, 7811.362
763.34, 7672.101
763.52, 7794.159
763.70, 8435.993
763.88, 8384.794
764.06, 8226.690
764.24, 7997.318
764.42, 8495.384
764.61, 8381.926
764.79, 8101.355
764.97, 8228.329
765.15, 8197.609
765.33, 8568.292
765.51, 8030.085
765.69, 8137.809
765.87, 8285.262
766.06, 8171.395
766.24, 7560.691
766.42, 7438.632
766.60, 7632.780
766.78, 7748.285
766.96, 7182.226
767.14, 6941.795
767.32, 7274.795
767.50, 6802.943
767.69, 6635.828
767.87, 6619.854
768.05, 6938.109
768.23, 6471.581
768.41, 6389.662
768.59, 6073.047
768.77, 6387.205
768.95, 6254.087
769.13, 5920.268
769.32, 5873.984
769.50, 6269.652
769.68, 6198.792
769.86, 5839.578
770.04, 5737.589
770.22, 5769.538
770.40, 6023.486
770.58, 5539.755
770.76, 5542.623
770.94, 6045.604
771.12, 5600.375
771.30, 5511.494
771.49, 5616.759
771.67, 5837.530
771.85, 5804.353
772.03, 5524.600
772.21, 5477.907
772.39, 5641.744
772.57, 5862.106
772.75, 5250.992
772.93, 5390.254
773.11, 5791.656
773.29, 5664.682
773.47, 5273.520
773.65, 5337.007
773.83, 5735.951
774.01, 5353.390
774.19, 5239.114
774.38, 5284.169
774.56, 5652.803
774.74, 5503.711
774.92, 5058.073
775.10, 5053.158
775.28, 5146.955
775.46, 5518.866
775.64, 4873.346
775.82, 4854.096
776.00, 4938.472
776.18, 4981.479
776.36, 4791.428
776.54, 4966.324
776.72, 5043.328
776.90, 5065.036
777.08, 4762.756
777.26, 4818.461
777.44, 4946.254
777.62, 5100.261
777.80, 4694.354
777.98, 4708.280
778.16, 4834.025
778.34, 4998.682
778.52, 4719.339
778.70, 4613.254
778.88, 4824.195
779.06, 4704.184
779.24, 4604.243
779.42, 4658.310
779.60, 5056.435
779.78, 4920.450
779.96, 4412.553
780.14, 4586.221
780.32, 4856.553
780.50, 5018.343
780.68, 4497.749
780.86, 4548.539
781.04, 4816.413
781.22, 4707.051
781.40, 4682.885
781.58, 4447.369
781.76, 4795.114
781.94, 4946.664
782.12, 4538.299
782.30, 4695.992
782.48, 4802.487
782.66, 4766.442
782.84, 4508.808
783.02, 4513.723
783.20, 4869.250
783.38, 4858.191
783.56, 4271.244
783.74, 4307.697
783.92, 4515.362
784.10, 4664.454
784.28, 4408.048
784.46, 4382.244
784.64, 4691.896
784.82, 4611.206
785.00, 4243.391
785.18, 4247.487
785.36, 4828.291
785.54, 4345.790
785.72, 4344.561
785.90, 4335.140
786.08, 4434.672
786.26, 4603.834
786.43, 4434.672
786.61, 4459.657
786.79, 4980.660
786.97, 5011.380
787.15, 4417.878
787.33, 4394.122
787.51, 4564.922
787.69, 4946.254
787.87, 4478.908
788.05, 4416.649
788.23, 5260.003
788.41, 4678.380
788.59, 4641.516
788.77, 4580.897
788.95, 4799.620
789.13, 4783.645
789.30, 4504.302
789.48, 4364.221
789.66, 4821.328
789.84, 4768.900
790.02, 4467.029
790.20, 4270.424
790.38, 4811.498
790.56, 4631.277
790.74, 4331.454
790.92, 4495.291
791.10, 4885.634
791.28, 4904.885
791.45, 4555.502
791.63, 4258.137
791.81, 4986.394
791.99, 4681.247
792.17, 4256.089
792.35, 4247.487
792.53, 4211.033
792.71, 4656.671
792.89, 4099.214
793.07, 4354.801
793.24, 4433.443
793.42, 4793.885
793.60, 4079.144
793.78, 4152.871
793.96, 4374.871
794.14, 4424.841
794.32, 4116.008
794.50, 4139.354
794.67, 4412.963
794.85, 4321.624
795.03, 4132.801
795.21, 4148.366
795.39, 4401.904
795.57, 4503.483
795.75, 4163.520
795.93, 4190.963
796.10, 4721.797
796.28, 4335.140
796.46, 4009.104
796.64, 4122.561
796.82, 4631.277
797.00, 4570.247
797.18, 4118.056
797.35, 4093.890
797.53, 4408.458
797.71, 4487.509
797.89, 4283.531
798.07, 4104.539
798.25, 4399.446
798.43, 4617.760
798.60, 4122.971
798.78, 4131.982
798.96, 4776.682
799.14, 4180.723
799.32, 3958.724
799.50, 4118.056
799.67, 4311.793
799.85, 4305.240
800.03, 4043.510
800.21, 4013.200
800.39, 4335.959
800.57, 4352.343
800.74, 3996.816
800.92, 4017.296
801.10, 4204.070
801.28, 4020.163
801.46, 3839.122
801.64, 3891.960
801.81, 4462.524
801.99, 4100.033
802.17, 4005.417
802.35, 3959.133
802.53, 4123.790
802.70, 3689.620
802.88, 3799.392
803.06, 3729.761
803.24, 4133.620
803.42, 4281.074
803.59, 3794.886
803.77, 3661.359
803.95, 4459.657
804.13, 4215.129
804.31, 3815.366
804.48, 3828.882
804.66, 4217.587
804.84, 3875.986
805.02, 3863.288
805.20, 3862.469
805.37, 3972.240
805.55, 4066.037
805.73, 3763.347
805.91, 3859.602
806.08, 4147.956
806.26, 4012.790
806.44, 3679.381
806.62, 3698.632
806.80, 4072.181
806.97, 4011.561
807.15, 3755.975
807.33, 3898.923
807.51, 4206.118
807.68, 3690.440
807.86, 3786.694
808.04, 3685.115
808.22, 4010.742
808.39, 5334.139
808.57, 3752.698
808.75, 3758.023
808.93, 4039.414
809.10, 3887.454
809.28, 3716.654
809.46, 3711.329
809.64, 4246.668
809.81, 3863.698
809.99, 3791.609
810.17, 3608.111
810.35, 4443.683
810.52, 3973.469
810.70, 3762.938
810.88, 3721.569
811.06, 4086.107
811.23, 4224.960
811.41, 3678.561
811.59, 3484.414
811.77, 4133.620
811.94, 3823.148
812.12, 3798.163
812.30, 3725.665
812.47, 4048.834
812.65, 4165.159
812.83, 3755.565
813.01, 3716.654
813.18, 3856.325
813.36, 4120.923
813.54, 3701.908
813.71, 3764.167
813.89, 4456.380
814.07, 4149.594
814.25, 3928.004
814.42, 3806.764
814.60, 4412.553
814.78, 4198.336
814.95, 3597.462
815.13, 3900.152
815.31, 4013.609
815.49, 4332.273
815.66, 3776.454
815.84, 3909.982
816.02, 4311.793
816.19, 4139.764
816.37, 4033.679
816.55, 4012.790
816.72, 4489.557
816.90, 4127.886
817.08, 3861.240
817.25, 4032.860
817.43, 4507.989
817.61, 4290.904
817.78, 4191.373
817.96, 4226.188
818.14, 4314.661
818.31, 4643.155
818.49, 4333.911
818.67, 4250.764
818.84, 4569.837
819.02, 4602.605
819.20, 4485.461
819.37, 4724.664
819.55, 5033.088
819.73, 5384.519
819.90, 5134.258
820.08, 5572.933
820.26, 6017.751
820.43, 6379.013
820.61, 6339.692
820.79, 6521.142
820.96, 7167.481
821.14, 7290.359
821.32, 7473.448
821.49, 7649.163
821.67, 8305.332
821.85, 8608.841
822.02, 8727.624
822.20, 8785.786
822.37, 9441.136
822.55, 9137.627
822.73, 9410.826
822.90, 9471.855
823.08, 10181.272
823.26, 9875.715
823.43, 9873.257
823.61, 9941.250
823.78, 10217.726
823.96, 9937.154
824.14, 9881.859
824.31, 9736.043
824.49, 10204.209
824.67, 10088.294
824.84, 9394.852
825.02, 9263.372
825.19, 9485.372
825.37, 9698.361
825.55, 8824.697
825.72, 8582.218
825.90, 8574.026
826.07, 8563.786
826.25, 8421.248
826.43, 7957.587
826.60, 8075.960
826.78, 8207.440
826.95, 7757.296
827.13, 7551.270
827.31, 8091.115
827.48, 7819.964
827.66, 7344.426
827.83, 7399.721
828.01, 7445.595
828.19, 7356.304
828.36, 6995.042
828.54, 7167.481
828.71, 7011.835
828.89, 6946.300
829.06, 6503.530
829.24, 6755.020
829.42, 6560.054
829.59, 6623.950
829.77, 6016.523
829.94, 5812.135
830.12, 5946.072
830.29, 5660.586
830.47, 5303.829
830.65, 5106.815
830.82, 5692.124
831.00, 5253.449
831.17, 4841.398
831.35, 4856.144
831.52, 5090.022
831.70, 5153.918
831.87, 4663.225
832.05, 4679.609
832.23, 5124.427
832.40, 5086.335
832.58, 5004.826
832.75, 4888.092
832.93, 5196.106
833.10, 5201.431
833.28, 5146.545
833.45, 5103.538
833.63, 5411.143
833.80, 5129.343
833.98, 5162.110
834.15, 5248.125
834.33, 5497.158
834.51, 5362.811
834.68, 4985.575
834.86, 4991.309
835.03, 5341.103
835.21, 5371.003
835.38, 4983.527
835.56, 5028.992
835.73, 5303.420
835.91, 5412.781
836.08, 4784.465
836.26, 4857.372
836.43, 4958.952
836.61, 4974.926
836.78, 4432.214
836.96, 4281.893
837.13, 4915.125
837.31, 4597.690
837.48, 4212.672
837.66, 3932.510
837.83, 4326.948
838.01, 4371.184
838.18, 3713.377
838.36, 3656.034
838.53, 4118.875
838.71, 4426.480
838.88, 3664.226
839.06, 3707.233
839.23, 4156.557
839.41, 4157.786
839.58, 3681.019
839.76, 3567.152
839.93, 4284.760
840.11, 4228.646
840.28, 3617.942
840.46, 3712.558
840.63, 3878.443
840.81, 3976.746
840.98, 3502.846
841.15, 3593.366
841.33, 4161.063
841.50, 3855.506
841.68, 3593.776
841.85, 3607.702
842.03, 4209.805
842.20, 4127.476
842.38, 3368.499
842.55, 3335.732
842.73, 3847.314
842.90, 3728.941
843.08, 3370.547
843.25, 3422.156
843.42, 3633.506
843.60, 3759.661
843.77, 3126.429
843.95, 3066.219
844.12, 3280.027
844.30, 3657.263
844.47, 2971.603
844.64, 2988.806
844.82, 3821.100
844.99, 3414.374
845.17, 2976.108
845.34, 2784.009
845.52, 3382.016
845.69, 3462.296
845.87, 2907.706
846.04, 2821.282
846.21, 3267.329
846.39, 3316.890
846.56, 2876.167
846.74, 2789.743
846.91, 3193.193
847.08, 3257.909
847.26, 2713.149
847.43, 2820.872
847.61, 3175.171
847.78, 3468.030
847.95, 2802.440
848.13, 2755.747
848.30, 3189.097
848.48, 3130.115
848.65, 2840.533
848.83, 2765.577
849.00, 3132.163
849.17, 3262.005
849.35, 2750.422
849.52, 2668.913
849.69, 3346.791
849.87, 3076.868
850.04, 2716.016
850.22, 2625.906
850.39, 3121.104
850.56, 3366.451
850.74, 2650.481
850.91, 2677.924
851.09, 3042.872
851.26, 3188.687
851.43, 2568.972
851.61, 2780.322
851.78, 3012.972
851.95, 3141.584
852.13, 2655.396
852.30, 2605.835
852.48, 3613.436
852.65, 3167.798
852.82, 2663.998
853.00, 2646.795
853.17, 3297.230
853.34, 2869.204
853.52, 2682.429
853.69, 2549.721
853.86, 3310.337
854.04, 3175.580
854.21, 2703.728
854.38, 2611.979
854.56, 3027.307
854.73, 2969.964
854.90, 2737.315
855.08, 2651.300
855.25, 3190.326
855.42, 2847.086
855.60, 2731.581
855.77, 2719.293
855.95, 3203.842
856.12, 3248.898
856.29, 2540.710
856.46, 2754.518
856.64, 3055.979
856.81, 3164.112
856.98, 2720.931
857.16, 2697.994
857.33, 2918.355
857.50, 3231.695
857.68, 2596.005
857.85, 2677.514
858.02, 2969.145
858.20, 2985.938
858.37, 2696.765
858.54, 2588.632
858.72, 3616.303
858.89, 3308.698
859.06, 2616.894
859.24, 2620.171
859.41, 3168.617
859.58, 3217.768
859.75, 2664.817
859.93, 2665.636
860.10, 3183.363
860.27, 3234.971
860.45, 2616.075
860.62, 2668.913
860.79, 3107.588
860.97, 3169.436
861.14, 2644.747
861.31, 2669.322
861.48, 3107.178
861.66, 2868.795
861.83, 2566.514
862.00, 2548.902
862.17, 2890.503
862.35, 3202.204
862.52, 2583.308
862.69, 2664.407
862.87, 3164.112
863.04, 3162.883
863.21, 2505.485
863.38, 2658.263
863.56, 3128.477
863.73, 3017.068
863.90, 2597.644
864.07, 2784.828
864.25, 3354.163
864.42, 2956.038
864.59, 2546.854
864.76, 2586.585
864.94, 3283.304
865.11, 2987.986
865.28, 2532.109
865.45, 2611.979
865.63, 3096.119
865.80, 2957.267
865.97, 2634.917
866.14, 2613.208
866.32, 3207.119
866.49, 2972.012
866.66, 2765.577
866.83, 2611.160
867.01, 3058.027
867.18, 3089.566
867.35, 2505.895
867.52, 2591.500
867.70, 3320.577
867.87, 3492.196
868.04, 2587.813
868.21, 2646.385
868.38, 3177.219
868.56, 3397.580
868.73, 2655.806
868.90, 2594.776
869.07, 3108.407
869.24, 3301.326
869.42, 2688.983
869.59, 2859.784
869.76, 3408.639
869.93, 3036.728
870.11, 2827.835
870.28, 2643.108
870.45, 3485.643
870.62, 3248.898
870.79, 2729.533
870.97, 2824.968
871.14, 3339.827
871.31, 3308.698
871.48, 2764.758
871.65, 2913.440
871.82, 3519.639
872.00, 3248.898
872.17, 2716.016
872.34, 2777.865
872.51, 3111.684
872.68, 3302.145
872.86, 2906.477
873.03, 2713.968
873.20, 3229.237
873.37, 3672.418
873.54, 2658.263
873.71, 2745.917
873.89, 3567.562
874.06, 3314.433
874.23, 2734.857
874.40, 2797.525
874.57, 3556.093
874.74, 3194.831
874.92, 2840.123
875.09, 2661.131
875.26, 3490.968
875.43, 3353.344
875.60, 2797.525
875.77, 2855.278
875.95, 3130.115
876.12, 3323.853
876.29, 2750.422
876.46, 2921.223
876.63, 3238.248
876.80, 3402.905
876.97, 3075.639
877.15, 2768.444
877.32, 3565.104
877.49, 3261.185
877.66, 3193.193
877.83, 3016.658
878.00, 3323.034
878.17, 3877.624
878.34, 2990.444
878.52, 3132.163
878.69, 3583.126
878.86, 3360.307
879.03, 3078.097
879.20, 3121.924
879.37, 3772.768
879.54, 4205.709
879.71, 3331.636
879.89, 3523.735
880.06, 4336.369
880.23, 4119.284
880.40, 3799.801
880.57, 3915.307
880.74, 4337.598
880.91, 4748.011
881.08, 4076.687
881.25, 4326.129
881.42, 4882.358
881.60, 4671.007
881.77, 4354.801
881.94, 4318.347
882.11, 4755.383
882.28, 4987.214
882.45, 4490.376
882.62, 4617.760
882.79, 5331.272
882.96, 5133.438
883.13, 4517.819
883.30, 4794.704
883.48, 5226.007
883.65, 5021.210
883.82, 4449.826
883.99, 4513.723
884.16, 5215.767
884.33, 4795.933
884.50, 4416.240
884.67, 4476.860
884.84, 4772.996
885.01, 4612.845
885.18, 4231.513
885.35, 4137.306
885.52, 4165.568
885.69, 4443.273
885.87, 3831.750
886.04, 3816.185
886.21, 4319.576
886.38, 4339.646
886.55, 3604.015
886.72, 3570.019
886.89, 4118.056
887.06, 3857.964
887.23, 3446.731
887.40, 3478.270
887.57, 3764.986
887.74, 3868.613
887.91, 3090.385
888.08, 3174.761
888.25, 3745.735
888.42, 3989.034
888.59, 3114.141
888.76, 3082.193
888.93, 3515.134
889.10, 3284.942
889.27, 3024.850
889.44, 3042.462
889.61, 3360.717
889.78, 3341.875
889.95, 3042.462
890.12, 3090.385
890.29, 3529.469
890.46, 3291.086
890.63, 2821.691
890.80, 2867.566
890.97, 3248.078
891.15, 3386.931
891.32, 2863.470
891.49, 2899.105
891.66, 3610.569
891.83, 3324.672
892.00, 2865.108
892.17, 2953.171
892.34, 3326.311
892.51, 3425.433
892.68, 2861.422
892.84, 2786.057
893.01, 3152.643
893.18, 3336.141
893.35, 2895.009
893.52, 2820.053
893.69, 3473.765
##END=
##END=   $$end of all blocks
