##TITLE= SPECTRASUITE EXPORTED SPECTRUM
##DATA TYPE= LINK
##BLOCKS= 3
##ORIGIN= OCEANOPTICS EXPORT
##OWNER= hugo
##TITLE= SPECTRASUITE EXPORTED SPECTRA: PROCESSED SPECTRUM
##JCAMP-DX= 5 $$EXPORTED SPECTRASUITE FILE
##DATA TYPE= UV/VIS SPECTRUM
##SAMPLE DESCRIPTION= PROCESSED SPECTRUM
##BLOCK_ID=1
##ORIGIN= OCEANOPTICS EXPORT
##OWNER= hugo
##SPECTROMETER/DATA SYSTEM= OCEANOPTICS EXPORT
##DATA PROCESSING= DARK:Yes REFERENCE:Yes
##DATA PROCESSING= BOXCAR:0 ELECTRICAL DARK: false
##.ACQUISITION TIME= 400
##.AVERAGES= 5
##XUNITS= NANOMETERS
##YUNITS= Transmission (%)
##XFACTOR= 1.0
##YFACTOR= 1.0
##FIRSTX= 176.36
##LASTX= 893.69
##FIRSTY= 32822.795
##MINY= 1633.869
##MAXY= 32822.795
##NPOINTS= 3648
##XYPOINTS= (XY..XY)
176.36, 32822.795
176.58, 32822.795
176.80, 32822.795
177.02, 1639.604
177.24, 1633.869
177.47, 2576.754
177.69, 2571.020
177.91, 3120.285
178.13, 2779.913
178.35, 2445.275
178.57, 2457.562
178.79, 2742.230
179.01, 2785.647
179.23, 2312.566
179.46, 2486.644
179.68, 2736.496
179.90, 2638.603
180.12, 2304.784
180.34, 2358.850
180.56, 2661.540
180.78, 3043.691
181.00, 2311.747
181.22, 2463.297
181.44, 2727.075
181.66, 2872.071
181.89, 2457.153
182.11, 2282.666
182.33, 2778.274
182.55, 3275.521
182.77, 2462.068
182.99, 2566.514
183.21, 2439.540
183.43, 2806.127
183.65, 2357.622
183.87, 2232.286
184.09, 3029.765
184.31, 2953.171
184.53, 2318.301
184.76, 2332.227
184.98, 2736.905
185.20, 3064.171
185.42, 2492.788
185.64, 2310.109
185.86, 3098.986
186.08, 3403.724
186.30, 2310.928
186.52, 2281.847
186.74, 2917.536
186.96, 2909.754
187.18, 2390.799
187.40, 2300.278
187.62, 3081.374
187.84, 3051.473
188.06, 2446.913
188.28, 2371.957
188.51, 3044.101
188.73, 3077.687
188.95, 2395.714
189.17, 2494.016
189.39, 2912.212
189.61, 2963.001
189.83, 2454.286
190.05, 2453.876
190.27, 3164.521
190.49, 2938.426
190.71, 2274.474
190.93, 2317.891
191.15, 2541.939
191.37, 2960.544
191.59, 2414.555
191.81, 2482.548
192.03, 2893.780
192.25, 2957.676
192.47, 2300.688
192.69, 2388.341
192.91, 2872.891
193.13, 3016.248
193.35, 2281.437
193.57, 2526.374
193.79, 2628.363
194.01, 3107.588
194.23, 2360.898
194.45, 2311.338
194.67, 3055.569
194.89, 2639.422
195.11, 2279.799
195.33, 2184.773
195.55, 2782.780
195.77, 2870.843
195.99, 2430.529
196.21, 2389.160
196.43, 2933.510
196.65, 2749.193
196.87, 2529.651
197.09, 2373.596
197.31, 3060.484
197.53, 3100.625
197.75, 2421.518
197.97, 2445.275
198.19, 3066.219
198.41, 3296.001
198.63, 2359.260
198.85, 2395.304
199.07, 3040.824
199.29, 2698.404
199.51, 2404.315
199.73, 2512.448
199.95, 2644.747
200.17, 2962.592
200.39, 2427.662
200.61, 2498.112
200.83, 2717.245
201.05, 2954.809
201.27, 2300.688
201.49, 2420.699
201.71, 3116.599
201.93, 3061.304
202.15, 2344.924
202.37, 2356.802
202.59, 2981.842
202.81, 2820.872
203.03, 2462.068
203.25, 2423.976
203.47, 2784.009
203.69, 2855.688
203.91, 2448.142
204.13, 2238.430
204.35, 2654.987
204.57, 3121.924
204.79, 2299.459
205.01, 2276.932
205.23, 3085.879
205.45, 2826.197
205.67, 2183.954
205.89, 2363.766
206.10, 3017.068
206.32, 2548.902
206.54, 2272.836
206.76, 2386.293
206.98, 2837.256
207.20, 2732.400
207.42, 2421.928
207.64, 2283.485
207.86, 2689.802
208.08, 3361.946
208.30, 2336.323
208.52, 2307.651
208.74, 3038.776
208.96, 3052.702
209.18, 2212.216
209.40, 2587.813
209.62, 2765.577
209.83, 2839.304
210.05, 2313.795
210.27, 2367.452
210.49, 2842.581
210.71, 2695.127
210.93, 2426.433
211.15, 2439.540
211.37, 2616.075
211.59, 2713.968
211.81, 2277.341
212.03, 2260.958
212.25, 2932.282
212.47, 2766.396
212.68, 2308.470
212.90, 2422.337
213.12, 2839.713
213.34, 3048.606
213.56, 2244.983
213.78, 2367.452
214.00, 3178.038
214.22, 2595.186
214.44, 2390.389
214.66, 2377.282
214.88, 2779.094
215.09, 2896.647
215.31, 2138.489
215.53, 2370.729
215.75, 2965.868
215.97, 2631.640
216.19, 2446.503
216.41, 2481.729
216.63, 2763.119
216.85, 3137.488
217.06, 2458.382
217.28, 2366.633
217.50, 2677.105
217.72, 3019.935
217.94, 2430.939
218.16, 2304.784
218.38, 2629.182
218.60, 2650.072
218.82, 2362.537
219.03, 2395.304
219.25, 2881.492
219.47, 2900.743
219.69, 2304.374
219.91, 2441.588
220.13, 3209.986
220.35, 2844.629
220.57, 2380.968
220.78, 2589.861
221.00, 2935.149
221.22, 2981.433
221.44, 2361.718
221.66, 2272.426
221.88, 3184.182
222.10, 2579.621
222.31, 2203.614
222.53, 2256.042
222.75, 2675.057
222.97, 2714.787
223.19, 2344.105
223.41, 2433.806
223.63, 2723.389
223.84, 3148.957
224.06, 2381.378
224.28, 2401.039
224.50, 2968.736
224.72, 2766.806
224.94, 2286.762
225.16, 2422.747
225.37, 3259.137
225.59, 2867.566
225.81, 2382.607
226.03, 2476.813
226.25, 3103.082
226.47, 2716.835
226.68, 2361.718
226.90, 2380.149
227.12, 2725.027
227.34, 3036.318
227.56, 2287.991
227.78, 2284.714
227.99, 2828.654
228.21, 2854.459
228.43, 2490.740
228.65, 2401.448
228.87, 2887.636
229.09, 2744.688
229.30, 2445.684
229.52, 2287.581
229.74, 2850.772
229.96, 3032.632
230.18, 2366.633
230.39, 2328.540
230.61, 2908.935
230.83, 2798.754
231.05, 2292.906
231.27, 2430.120
231.49, 2669.732
231.70, 2979.385
231.92, 2326.902
232.14, 2312.976
232.36, 2702.090
232.58, 3048.606
232.79, 2276.932
233.01, 2312.566
233.23, 2874.939
233.45, 2763.939
233.67, 2284.304
233.88, 2366.633
234.10, 3147.728
234.32, 3044.920
234.54, 2344.515
234.75, 2316.253
234.97, 2874.119
235.19, 3166.569
235.41, 2388.341
235.63, 2369.090
235.84, 3133.802
236.06, 2619.762
236.28, 2312.976
236.50, 2292.906
236.72, 2569.382
236.93, 2693.079
237.15, 2349.020
237.37, 2284.714
237.59, 2942.931
237.80, 2647.614
238.02, 2299.869
238.24, 2294.544
238.46, 3040.414
238.67, 3151.414
238.89, 2435.035
239.11, 2446.094
239.33, 2697.175
239.55, 2747.145
239.76, 2421.518
239.98, 2279.799
240.20, 2816.776
240.42, 2773.769
240.63, 2408.411
240.85, 2353.116
241.07, 2943.750
241.29, 3035.090
241.50, 2289.629
241.72, 2410.459
241.94, 2783.190
242.16, 3240.296
242.37, 2372.367
242.59, 2318.710
242.81, 2556.684
243.03, 2982.662
243.24, 2305.603
243.46, 2477.223
243.68, 3026.488
243.90, 2679.153
244.11, 2276.522
244.33, 2311.338
244.55, 2752.470
244.76, 2761.071
244.98, 2446.913
245.20, 2297.002
245.42, 2919.175
245.63, 2717.245
245.85, 2263.005
246.07, 2303.146
246.29, 2910.573
246.50, 2931.872
246.72, 2425.614
246.94, 2466.574
247.15, 2842.581
247.37, 3150.186
247.59, 2300.279
247.81, 2505.895
248.02, 2792.201
248.24, 3005.599
248.46, 2380.559
248.67, 2285.124
248.89, 2967.507
249.11, 3014.610
249.33, 2494.016
249.54, 2323.625
249.76, 2803.260
249.98, 2530.470
250.19, 2304.784
250.41, 2292.906
250.63, 2901.562
250.84, 2707.005
251.06, 2351.068
251.28, 2394.895
251.50, 2564.876
251.71, 2866.747
251.93, 2346.153
252.15, 2315.024
252.36, 2753.699
252.58, 3241.525
252.80, 2388.751
253.01, 2581.260
253.23, 2995.769
253.45, 2752.470
253.66, 2391.208
253.88, 2407.592
254.10, 2719.293
254.31, 3012.152
254.53, 2215.902
254.75, 2396.533
254.97, 3123.972
255.18, 2858.964
255.40, 2380.559
255.62, 2317.891
255.83, 2670.551
256.05, 2938.426
256.27, 2365.814
256.48, 2465.345
256.70, 2895.009
256.92, 2948.665
257.13, 2543.577
257.35, 2281.028
257.57, 3103.901
257.78, 2874.939
258.00, 2518.182
258.21, 2493.607
258.43, 3075.230
258.65, 2938.835
258.86, 2319.939
259.08, 2367.452
259.30, 3040.005
259.51, 3150.595
259.73, 2244.164
259.95, 2417.832
260.16, 3013.791
260.38, 3171.484
260.60, 2263.825
260.81, 2355.164
261.03, 2905.658
261.25, 2611.570
261.46, 2353.935
261.68, 2315.843
261.89, 2758.204
262.11, 2747.555
262.33, 2360.489
262.54, 2156.511
262.76, 2925.728
262.98, 2924.090
263.19, 2310.928
263.41, 2371.138
263.62, 2792.610
263.84, 2867.975
264.06, 2341.238
264.27, 2369.090
264.49, 2813.909
264.71, 2814.728
264.92, 2444.456
265.14, 2460.430
265.35, 2979.385
265.57, 2903.200
265.79, 2394.895
266.00, 2475.585
266.22, 3164.112
266.43, 2626.315
266.65, 2469.031
266.87, 2227.371
267.08, 2515.315
267.30, 2564.466
267.51, 2536.204
267.73, 2369.909
267.95, 3171.484
268.16, 2744.278
268.38, 2424.795
268.59, 2511.629
268.81, 2977.337
269.03, 3054.750
269.24, 2336.323
269.46, 2400.629
269.67, 2865.927
269.89, 2815.547
270.11, 2447.323
270.32, 2432.987
270.54, 2840.533
270.75, 3356.211
270.97, 2296.183
271.19, 2365.813
271.40, 2813.090
271.62, 2696.765
271.83, 2303.146
272.05, 2296.183
272.26, 2949.894
272.48, 2987.577
272.70, 2563.238
272.91, 2534.976
273.13, 3024.031
273.34, 3070.315
273.56, 2538.662
273.77, 2500.979
273.99, 3323.034
274.21, 3395.942
274.42, 2689.393
274.64, 2580.441
274.85, 2943.750
275.07, 2815.547
275.28, 2551.769
275.50, 2687.754
275.71, 2736.496
275.93, 2749.193
276.15, 2657.854
276.36, 2590.271
276.58, 3130.935
276.79, 2880.673
277.01, 2660.721
277.22, 2613.208
277.44, 3443.864
277.65, 3119.466
277.87, 2612.799
278.08, 2580.441
278.30, 3406.182
278.52, 2972.422
278.73, 2700.042
278.95, 2496.064
279.16, 2773.359
279.38, 3003.141
279.59, 2758.204
279.81, 2532.109
280.02, 3233.333
280.24, 3315.252
280.45, 2668.503
280.67, 2507.943
280.88, 2999.865
281.10, 3219.407
281.31, 2753.289
281.53, 2698.813
281.74, 3118.647
281.96, 2914.669
282.17, 2657.444
282.39, 2631.640
282.60, 2847.905
282.82, 3029.355
283.04, 2679.153
283.25, 2667.274
283.47, 3067.448
283.68, 3077.278
283.90, 2752.880
284.11, 2616.894
284.33, 2867.156
284.54, 2967.097
284.76, 2634.097
284.97, 2754.928
285.19, 3003.141
285.40, 3226.370
285.62, 2836.437
285.83, 2676.695
286.05, 3156.739
286.26, 3018.706
286.48, 2736.086
286.69, 2793.429
286.91, 2905.248
287.12, 3424.613
287.33, 2618.533
287.55, 2634.097
287.76, 3276.340
287.98, 3195.241
288.19, 3018.706
288.41, 2526.374
288.62, 3015.020
288.84, 3208.348
289.05, 2607.474
289.27, 2645.566
289.48, 3289.857
289.70, 2879.034
289.91, 2846.267
290.13, 2798.344
290.34, 3221.455
290.56, 3136.259
290.77, 2775.407
290.99, 2764.758
291.20, 3007.237
291.41, 3051.473
291.63, 2821.282
291.84, 2978.156
292.06, 3273.883
292.27, 3117.008
292.49, 2768.444
292.70, 3060.484
292.92, 3281.256
293.13, 3392.255
293.35, 2893.370
293.56, 2890.503
293.77, 3064.171
293.99, 3462.296
294.20, 2849.953
294.42, 2886.407
294.63, 3383.244
294.85, 3568.790
295.06, 2843.400
295.28, 2870.023
295.49, 2915.079
295.70, 3632.687
295.92, 2870.023
296.13, 3109.226
296.35, 3563.466
296.56, 3354.982
296.78, 2841.761
296.99, 2965.459
297.20, 3251.765
297.42, 3532.746
297.63, 3036.728
297.85, 2949.485
298.06, 3235.791
298.28, 3445.503
298.49, 2917.946
298.70, 3029.355
298.92, 3656.443
299.13, 3620.399
299.35, 3075.639
299.56, 3007.647
299.77, 3172.304
299.99, 3301.735
300.20, 3126.020
300.42, 3006.418
300.63, 3542.986
300.85, 3706.414
301.06, 3242.344
301.27, 3171.484
301.49, 3380.787
301.70, 3644.975
301.92, 3155.510
302.13, 3150.186
302.34, 3465.573
302.56, 3724.846
302.77, 3152.643
302.99, 3211.215
303.20, 3570.019
303.41, 3578.211
303.63, 3262.824
303.84, 3109.636
304.05, 3334.912
304.27, 3598.281
304.48, 3308.698
304.70, 3160.425
304.91, 3815.366
305.12, 3672.008
305.34, 3167.798
305.55, 3205.071
305.77, 3432.805
305.98, 3788.742
306.19, 3367.270
306.41, 3415.602
306.62, 3561.008
306.83, 3875.986
307.05, 3392.255
307.26, 3331.636
307.47, 4003.779
307.69, 3967.325
307.90, 3379.968
308.12, 3420.517
308.33, 3799.801
308.54, 4168.845
308.76, 3318.119
308.97, 3508.580
309.18, 3934.558
309.40, 3684.705
309.61, 3584.764
309.82, 3492.196
310.04, 3802.668
310.25, 4126.247
310.46, 3436.901
310.68, 3541.757
310.89, 3916.126
311.11, 3726.894
311.32, 3585.584
311.53, 3546.263
311.75, 4092.661
311.96, 4080.373
312.17, 3703.547
312.39, 3666.274
312.60, 4050.063
312.81, 4177.856
313.03, 3690.849
313.24, 3665.864
313.45, 3983.709
313.67, 4098.395
313.88, 3753.927
314.09, 3705.595
314.31, 4027.535
314.52, 4086.517
314.73, 3724.436
314.95, 3685.934
315.16, 4394.531
315.37, 4293.362
315.58, 3708.462
315.80, 3607.702
316.01, 3943.569
316.22, 4159.834
316.44, 3776.454
316.65, 3908.344
316.86, 4125.838
317.08, 4212.672
317.29, 3852.229
317.50, 3631.868
317.72, 3973.879
317.93, 4353.162
318.14, 3787.104
318.35, 3975.927
318.57, 4109.454
318.78, 4381.424
318.99, 3895.237
319.21, 3695.764
319.42, 4450.646
319.63, 4126.657
319.85, 3766.215
320.06, 3968.144
320.27, 4219.225
320.48, 3989.443
320.70, 3944.797
320.91, 3993.949
321.12, 4407.229
321.34, 4300.325
321.55, 4042.690
321.76, 3999.683
321.97, 4543.623
322.19, 4351.524
322.40, 4154.100
322.61, 4079.144
322.83, 4369.956
323.04, 4391.664
323.25, 4183.591
323.46, 4185.229
323.68, 4633.324
323.89, 4369.137
324.10, 4195.878
324.31, 4375.280
324.53, 4705.823
324.74, 4933.147
324.95, 4386.749
325.16, 4587.040
325.38, 4975.745
325.59, 5006.055
325.80, 4566.970
326.01, 4426.070
326.23, 5087.974
326.44, 4956.494
326.65, 4523.144
326.86, 4617.760
327.08, 4870.070
327.29, 4863.926
327.50, 4472.354
327.71, 4630.457
327.93, 4401.085
328.14, 4733.265
328.35, 4437.129
328.56, 4653.804
328.78, 4915.944
328.99, 5326.767
329.20, 4520.277
329.41, 4628.409
329.63, 4974.926
329.84, 4860.649
330.05, 4591.136
330.26, 4602.605
330.48, 4637.420
330.69, 4878.671
330.90, 4697.221
331.11, 4559.598
331.32, 4836.483
331.54, 5154.328
331.75, 4617.350
331.96, 4760.708
332.17, 5380.014
332.39, 4796.343
332.60, 4687.800
332.81, 4627.181
333.02, 4907.343
333.23, 4834.435
333.45, 4814.365
333.66, 4893.826
333.87, 5103.538
334.08, 5123.199
334.29, 4913.487
334.51, 4947.892
334.72, 5278.844
334.93, 5277.206
335.14, 4999.501
335.35, 4925.365
335.57, 5106.405
335.78, 5218.634
335.99, 4891.778
336.20, 4845.494
336.41, 5170.711
336.63, 5615.940
336.84, 4946.664
337.05, 5250.173
337.26, 5701.545
337.47, 5321.442
337.69, 5300.553
337.90, 5169.483
338.11, 5646.659
338.32, 5921.906
338.53, 5120.741
338.74, 5206.346
338.96, 5799.848
339.17, 6062.807
339.38, 5703.183
339.59, 5459.885
339.80, 5833.844
340.01, 6041.917
340.23, 5579.896
340.44, 5387.387
340.65, 6003.825
340.86, 5919.449
341.07, 5517.637
341.28, 5598.327
341.50, 6060.349
341.71, 5798.209
341.92, 5771.586
342.13, 5629.866
342.34, 5984.165
342.55, 5960.818
342.77, 5771.995
342.98, 5741.276
343.19, 6241.799
343.40, 6347.884
343.61, 5821.146
343.82, 6055.434
344.03, 5942.796
344.25, 6483.459
344.46, 5823.604
344.67, 6077.552
344.88, 6206.574
345.09, 6491.651
345.30, 6034.135
345.51, 6186.914
345.73, 6542.441
345.94, 6417.105
346.15, 6277.843
346.36, 6252.449
346.57, 6560.873
346.78, 6340.102
346.99, 6243.438
347.21, 6399.083
347.42, 6567.426
347.63, 6510.083
347.84, 6361.401
348.05, 6312.249
348.26, 6515.408
348.47, 6415.057
348.68, 6250.810
348.89, 6442.910
349.11, 6714.470
349.32, 6822.603
349.53, 6235.246
349.74, 6572.341
349.95, 6516.227
350.16, 6863.972
350.37, 6290.131
350.58, 6517.865
350.79, 6954.083
351.01, 6938.109
351.22, 6549.404
351.43, 6467.895
351.64, 6991.356
351.85, 6884.042
352.06, 6547.356
352.27, 6538.755
352.48, 6945.481
352.69, 7136.762
352.90, 6691.943
353.12, 6787.378
353.33, 6968.009
353.54, 6943.433
353.75, 6746.828
353.96, 6748.876
354.17, 7072.455
354.38, 7343.197
354.59, 6884.861
354.80, 6970.466
355.01, 7055.252
355.22, 7178.950
355.43, 6929.507
355.64, 7089.249
355.86, 7415.285
356.07, 7527.514
356.28, 7179.769
356.49, 6795.160
356.70, 7486.555
356.91, 7898.196
357.12, 7322.307
357.33, 7246.123
357.54, 7701.182
357.75, 7587.315
357.96, 7125.702
358.17, 7324.765
358.38, 7579.532
358.59, 7716.746
358.80, 7388.662
359.02, 7452.968
359.23, 7524.647
359.44, 8016.978
359.65, 7393.986
359.86, 7742.551
360.07, 7812.182
360.28, 7651.211
360.49, 7694.628
360.70, 7894.100
360.91, 8028.857
361.12, 8066.539
361.33, 7912.942
361.54, 7933.831
361.75, 8366.362
361.96, 8254.543
362.17, 8148.868
362.38, 8020.665
362.59, 8661.269
362.80, 8572.388
363.01, 7983.392
363.22, 8105.041
363.43, 8178.358
363.64, 8655.126
363.85, 8148.868
364.06, 8410.188
364.27, 8612.528
364.48, 8819.782
364.69, 8174.262
364.90, 8292.225
365.11, 8755.066
365.33, 8911.122
365.54, 8346.292
365.75, 8608.841
365.96, 8934.468
366.17, 8730.491
366.38, 8548.631
366.59, 8556.823
366.80, 8667.004
367.01, 9335.870
367.22, 8282.395
367.43, 8522.008
367.64, 8926.686
367.85, 9034.000
368.06, 8457.292
368.27, 8576.484
368.48, 9471.446
368.69, 8668.233
368.90, 8682.159
369.11, 8682.568
369.32, 9237.568
369.53, 8963.550
369.74, 8664.137
369.94, 8649.801
370.15, 8919.723
370.36, 9337.099
370.57, 8495.384
370.78, 8845.587
370.99, 9044.649
371.20, 9418.608
371.41, 8930.782
371.62, 8929.963
371.83, 9001.642
372.04, 8995.088
372.25, 8831.660
372.46, 9007.376
372.67, 9108.136
372.88, 9545.582
373.09, 8726.804
373.30, 8933.240
373.51, 9089.295
373.72, 9375.191
373.93, 9093.391
374.14, 8917.675
374.35, 9321.125
374.56, 9598.420
374.77, 9270.745
374.98, 8957.815
375.19, 9574.254
375.40, 9668.870
375.61, 9073.321
375.82, 9373.143
376.03, 9536.981
376.23, 9622.176
376.44, 9156.878
376.65, 9164.251
376.86, 9448.918
377.07, 9814.276
377.28, 9391.575
377.49, 9329.726
377.70, 9888.822
377.91, 9624.224
378.12, 9364.542
378.33, 9400.177
378.54, 9500.117
378.75, 10096.896
378.96, 9410.826
379.17, 9502.985
379.37, 9857.283
379.58, 9758.571
379.79, 9368.638
380.00, 9477.999
380.21, 9767.992
380.42, 10094.028
380.63, 9592.276
380.84, 9653.715
381.05, 10095.257
381.26, 10162.021
381.47, 9661.907
381.68, 10003.099
381.89, 10320.534
382.09, 9970.741
382.30, 9990.811
382.51, 9855.645
382.72, 10315.619
382.93, 10102.220
383.14, 9765.944
383.35, 10180.453
383.56, 10278.755
383.77, 10414.331
383.98, 10033.409
384.18, 10289.405
384.39, 10629.777
384.60, 10640.836
384.81, 9940.840
385.02, 9915.036
385.23, 10326.268
385.44, 10537.209
385.65, 10300.054
385.86, 10112.870
386.06, 10644.932
386.27, 10786.242
386.48, 10249.674
386.69, 10284.080
386.90, 10258.275
387.11, 10757.570
387.32, 10254.589
387.53, 10310.703
387.73, 10566.290
387.94, 10937.382
388.15, 10461.024
388.36, 10313.571
388.57, 11093.437
388.78, 10859.969
388.99, 10588.408
389.20, 10080.921
389.40, 11379.334
389.61, 10567.519
389.82, 10356.168
390.03, 10475.770
390.24, 10963.596
390.45, 10630.596
390.66, 10574.482
390.86, 10278.755
391.07, 10508.947
391.28, 10558.098
391.49, 10368.866
391.70, 10515.910
391.91, 10644.522
392.12, 11154.467
392.32, 10384.021
392.53, 10640.017
392.74, 11027.493
392.95, 11183.957
393.16, 10489.696
393.37, 10574.072
393.57, 11004.965
393.78, 10837.851
393.99, 10951.718
394.20, 10749.378
394.41, 11333.049
394.62, 11103.267
394.82, 11104.496
395.03, 10925.094
395.24, 11321.990
395.45, 11060.260
395.66, 10886.592
395.87, 10878.810
396.07, 11328.954
396.28, 11437.086
396.49, 11474.769
396.70, 11009.880
396.91, 11272.020
397.11, 11596.418
397.32, 10739.548
397.53, 11148.323
397.74, 11452.651
397.95, 11487.466
398.16, 10913.625
398.36, 11533.341
398.57, 11634.101
398.78, 11324.858
398.99, 11303.149
399.20, 11129.891
399.40, 11031.998
399.61, 11822.514
399.82, 11150.371
400.03, 11211.810
400.24, 11715.610
400.44, 11351.072
400.65, 11113.917
400.86, 11352.710
401.07, 11605.429
401.27, 11720.935
401.48, 11263.419
401.69, 11145.865
401.90, 12130.119
402.11, 11628.367
402.31, 11575.529
402.52, 11515.319
402.73, 11468.625
402.94, 11656.219
403.15, 11433.400
403.35, 11297.824
403.56, 12182.956
403.77, 11707.828
403.98, 11535.798
404.18, 11405.548
404.39, 11969.149
404.60, 11822.924
404.81, 11841.355
405.01, 11867.160
405.22, 12101.038
405.43, 12291.908
405.64, 12007.241
405.85, 11981.846
406.05, 12472.949
406.26, 12309.111
406.47, 12127.661
406.68, 12162.477
406.88, 13014.022
407.09, 12369.322
407.30, 11914.673
407.51, 11777.868
407.71, 12990.266
407.92, 11893.783
408.13, 11953.994
408.34, 12097.761
408.54, 12304.196
408.75, 12117.422
408.96, 12795.299
409.16, 12444.277
409.37, 12716.657
409.58, 12762.122
409.79, 12628.185
409.99, 12506.945
410.20, 13070.956
410.41, 12427.894
410.62, 12142.407
410.82, 12447.554
411.03, 13291.317
411.24, 12639.244
411.45, 12408.233
411.65, 12352.528
411.86, 12600.333
412.07, 12790.384
412.27, 12633.100
412.48, 12563.469
412.69, 12654.399
412.90, 13380.609
413.10, 12421.340
413.31, 12635.148
413.52, 12914.491
413.72, 12470.901
413.93, 12613.440
414.14, 12293.956
414.35, 12843.222
414.55, 13303.195
414.76, 12649.484
414.97, 12711.332
415.17, 12978.388
415.38, 13080.786
415.59, 12567.155
415.79, 12741.642
416.00, 13448.192
416.21, 13433.856
416.41, 12837.897
416.62, 12385.705
416.83, 13700.092
417.04, 13500.210
417.24, 13012.793
417.45, 12923.912
417.66, 13173.354
417.86, 13388.391
418.07, 12844.860
418.28, 13127.889
418.48, 13756.616
418.69, 13265.513
418.90, 13355.214
419.10, 13080.786
419.31, 13322.446
419.52, 13392.896
419.72, 13148.369
419.93, 13281.487
420.14, 13856.147
420.34, 13552.638
420.55, 13093.483
420.76, 13521.099
420.96, 13365.454
421.17, 13611.620
421.38, 13140.996
421.58, 13370.369
421.79, 13826.656
422.00, 13899.564
422.20, 13110.686
422.41, 13085.701
422.62, 13354.395
422.82, 13818.055
423.03, 13280.668
423.24, 13517.003
423.44, 13212.675
423.65, 13305.243
423.85, 13232.336
424.06, 13367.092
424.27, 13933.970
424.47, 13739.822
424.68, 13825.837
424.89, 13762.760
425.09, 13699.273
425.30, 13613.258
425.51, 13380.199
425.71, 13481.778
425.92, 13599.332
426.12, 14325.541
426.33, 13417.472
426.54, 12974.701
426.74, 13729.173
426.95, 13862.291
427.16, 13088.978
427.36, 14111.324
427.57, 13782.010
427.77, 14299.327
427.98, 13641.520
428.19, 14048.656
428.39, 13887.276
428.60, 14203.073
428.81, 13747.605
429.01, 13365.044
429.22, 14081.014
429.42, 13773.819
429.63, 13924.140
429.84, 13748.424
430.04, 14178.088
430.25, 14273.113
430.45, 13479.730
430.66, 14198.977
430.87, 13640.701
431.07, 13815.597
431.28, 13916.357
431.48, 13851.232
431.69, 14175.220
431.90, 13697.634
432.10, 14519.279
432.31, 13958.955
432.51, 14377.560
432.72, 14400.087
432.92, 14346.431
433.13, 13922.092
433.34, 14368.549
433.54, 14566.792
433.75, 14165.800
433.95, 14162.523
434.16, 15005.057
434.37, 14280.486
434.57, 14287.449
434.78, 14528.700
434.98, 14757.253
435.19, 14691.718
435.39, 14865.386
435.60, 14495.932
435.81, 15141.043
436.01, 14709.331
436.22, 14174.811
436.42, 14534.025
436.63, 15317.987
436.83, 15431.035
437.04, 14887.504
437.24, 14755.205
437.45, 15118.924
437.66, 14902.249
437.86, 14494.704
438.07, 15083.699
438.27, 15140.633
438.48, 14915.766
438.68, 14801.899
438.89, 15107.456
439.09, 15326.589
439.30, 15252.452
439.50, 14404.593
439.71, 15059.943
439.92, 15049.294
440.12, 15288.087
440.33, 14657.312
440.53, 15318.397
440.74, 15276.618
440.94, 15410.146
441.15, 14987.035
441.35, 15018.574
441.56, 15364.681
441.76, 15440.456
441.97, 15189.375
442.17, 15464.622
442.38, 15068.135
442.58, 15438.817
442.79, 14682.298
443.00, 14901.840
443.20, 15400.725
443.41, 14985.807
443.61, 14588.091
443.82, 14941.161
444.02, 15036.187
444.23, 15029.633
444.43, 14747.013
444.64, 14785.106
444.84, 15264.740
445.05, 14714.246
445.25, 14887.504
445.46, 14998.504
445.66, 14772.408
445.87, 14777.733
446.07, 14651.168
446.28, 14877.674
446.48, 15296.688
446.69, 14788.382
446.89, 14867.844
447.10, 14975.157
447.30, 15467.489
447.51, 15313.891
447.71, 15677.610
447.92, 15195.928
448.12, 15687.850
448.33, 15437.588
448.53, 15099.674
448.73, 15452.334
448.94, 16555.370
449.14, 15851.688
449.35, 15720.618
449.55, 15715.293
449.76, 16020.850
449.96, 16472.632
450.17, 15727.171
450.37, 16063.857
450.58, 16461.163
450.78, 16179.772
450.99, 15902.887
451.19, 16141.270
451.40, 16230.152
451.60, 16242.031
451.81, 16214.178
452.01, 16040.920
452.21, 16156.835
452.42, 16036.415
452.62, 15467.079
452.83, 15770.179
453.03, 16043.378
453.24, 15735.773
453.44, 15725.942
453.65, 15376.559
453.85, 16146.186
454.06, 15493.293
454.26, 15442.913
454.46, 15631.326
454.67, 15612.895
454.87, 15787.382
455.08, 15661.227
455.28, 15049.703
455.49, 16123.248
455.69, 15928.282
455.89, 15383.522
456.10, 15093.120
456.30, 16038.872
456.51, 15793.935
456.71, 15298.327
456.92, 15505.581
457.12, 16258.005
457.32, 15671.057
457.53, 15709.559
457.73, 15745.603
457.94, 16280.123
458.14, 15857.832
458.35, 15654.264
458.55, 15370.415
458.75, 16224.008
458.96, 16444.779
459.16, 15918.452
459.37, 16294.049
459.57, 15959.820
459.77, 16333.370
459.98, 16107.684
460.18, 16435.768
460.39, 16881.406
460.59, 16562.333
460.79, 16737.229
461.00, 16214.178
461.20, 16957.591
461.41, 17225.056
461.61, 16848.639
461.81, 16768.359
462.02, 17159.111
462.22, 17824.291
462.43, 17426.576
462.63, 16867.071
462.83, 17866.070
463.04, 17665.778
463.24, 17802.992
463.45, 17714.520
463.65, 17741.963
463.85, 18283.036
464.06, 17544.539
464.26, 18010.247
464.46, 18543.538
464.67, 18837.217
464.87, 18539.852
465.08, 18156.472
465.28, 19173.083
465.48, 19130.076
465.69, 18998.597
465.89, 18840.903
466.09, 20178.226
466.30, 19943.120
466.50, 19334.054
466.71, 19882.090
466.91, 20622.636
467.11, 21128.074
467.32, 20541.946
467.52, 20639.429
467.72, 21178.454
467.93, 20739.780
468.13, 21487.288
468.33, 20799.990
468.54, 22176.634
468.74, 21798.579
468.94, 21754.343
469.15, 21360.724
469.35, 21540.126
469.55, 21850.188
469.76, 21514.321
469.96, 21408.646
470.17, 21198.525
470.37, 21996.004
470.57, 21330.004
470.78, 21386.938
470.98, 22273.708
471.18, 22227.424
471.39, 21720.757
471.59, 21887.052
471.79, 22220.461
471.99, 21877.221
472.20, 22106.594
472.40, 22129.122
472.60, 22001.738
472.81, 22393.719
473.01, 22289.682
473.21, 22108.642
473.42, 22720.984
473.62, 22530.523
473.82, 22470.313
474.03, 22308.933
474.23, 22390.033
474.43, 22376.107
474.64, 21538.897
474.84, 21936.612
475.04, 22122.568
475.25, 21977.981
475.45, 21730.587
475.65, 21415.609
475.85, 21591.325
476.06, 21783.424
476.26, 21262.421
476.46, 21344.340
476.67, 21513.093
476.87, 21633.923
477.07, 21429.126
477.28, 21194.838
477.48, 21744.513
477.68, 21742.465
477.88, 21410.694
478.09, 21718.709
478.29, 21901.387
478.49, 22561.243
478.70, 21814.144
478.90, 22016.074
479.10, 22316.715
479.30, 22961.416
479.51, 22137.313
479.71, 22207.354
479.91, 23151.877
480.11, 23418.523
480.32, 23220.689
480.52, 23495.117
480.72, 23400.501
480.93, 23933.792
481.13, 23470.541
481.33, 24081.245
481.53, 24503.537
481.74, 24649.352
481.94, 24341.337
482.14, 23905.530
482.34, 24809.913
482.55, 24698.503
482.75, 24553.507
482.95, 24249.588
483.15, 25014.710
483.36, 24279.898
483.56, 25012.252
483.76, 24089.028
483.96, 24639.931
484.17, 24607.164
484.37, 24012.024
484.57, 24260.238
484.77, 24575.215
484.98, 24410.149
485.18, 23869.895
485.38, 23763.401
485.58, 24293.824
485.79, 24008.747
485.99, 23532.390
486.19, 23458.253
486.39, 24230.337
486.59, 23553.279
486.80, 23463.168
487.00, 23139.180
487.20, 23783.880
487.40, 23460.711
487.61, 23375.925
487.81, 23092.076
488.01, 23494.297
488.21, 23747.426
488.41, 23357.903
488.62, 23487.744
488.82, 23364.456
489.02, 23849.825
489.22, 23630.692
489.43, 23819.515
489.63, 24373.286
489.83, 24054.212
490.03, 23986.629
490.23, 23923.552
490.44, 24820.152
490.64, 24691.540
490.84, 24754.208
491.04, 24893.879
491.24, 25221.964
491.45, 25732.727
491.65, 25319.038
491.85, 25277.259
492.05, 26445.830
492.25, 25886.735
492.45, 25727.403
492.66, 25466.082
492.86, 25967.015
493.06, 26059.583
493.26, 25831.439
493.46, 25637.702
493.67, 26368.826
493.87, 25595.923
494.07, 25454.204
494.27, 25086.388
494.47, 25203.942
494.67, 25529.159
494.88, 24835.307
495.08, 24669.422
495.28, 25085.979
495.48, 24840.632
495.68, 24342.566
495.89, 24281.127
496.09, 24521.559
496.29, 24357.312
496.49, 24235.662
496.69, 24072.234
496.89, 23895.290
497.09, 24113.194
497.30, 23800.264
497.50, 23730.224
497.70, 24067.319
497.90, 24390.079
498.10, 23603.659
498.30, 24208.629
498.51, 23681.482
498.71, 23886.279
498.91, 23430.401
499.11, 23672.061
499.31, 23905.530
499.51, 24140.636
499.71, 23581.951
499.92, 23377.973
500.12, 23842.862
500.32, 23572.940
500.52, 23820.334
500.72, 23315.715
500.92, 23833.441
501.12, 24025.131
501.32, 23240.349
501.53, 23520.921
501.73, 23695.818
501.93, 23873.991
502.13, 23158.840
502.33, 23133.855
502.53, 23445.146
502.73, 23554.917
502.93, 23044.973
503.14, 23048.250
503.34, 23217.822
503.54, 23375.515
503.74, 23132.626
503.94, 22855.741
504.14, 23516.006
504.34, 23155.563
504.54, 22990.497
504.74, 22639.885
504.95, 23243.626
505.15, 23686.397
505.35, 22564.110
505.55, 22911.036
505.75, 23143.685
505.95, 23358.312
506.15, 22968.789
506.35, 22888.508
506.55, 23067.501
506.75, 23230.519
506.95, 22868.438
507.16, 22764.811
507.36, 23111.737
507.56, 23175.634
507.76, 22909.398
507.96, 22836.900
508.16, 23040.058
508.36, 23028.589
508.56, 22696.409
508.76, 22976.161
508.96, 23091.667
509.16, 23452.929
509.36, 22858.198
509.57, 22878.268
509.77, 22984.353
509.97, 22837.719
510.17, 22797.988
510.37, 23006.471
510.57, 22999.099
510.77, 22821.745
510.97, 23108.870
511.17, 22704.601
511.37, 23474.637
511.57, 23346.844
511.77, 22817.239
511.97, 22949.538
512.17, 23352.168
512.37, 23478.733
512.57, 23080.608
512.78, 22890.556
512.98, 23398.453
513.18, 23194.065
513.38, 22872.944
513.58, 23101.497
513.78, 23615.947
513.98, 23393.537
514.18, 23314.076
514.38, 22940.527
514.58, 22783.652
514.78, 23266.973
514.98, 23288.272
515.18, 23285.814
515.38, 23604.478
515.58, 23423.028
515.78, 23212.087
515.98, 23408.283
516.18, 23902.662
516.38, 23959.186
516.58, 23667.146
516.78, 23147.372
516.98, 23534.847
517.18, 23914.541
517.38, 23514.777
517.58, 23601.201
517.78, 23654.039
517.98, 24002.603
518.18, 23464.397
518.38, 23663.869
518.58, 24212.725
518.78, 23794.939
518.98, 23603.659
519.18, 23601.611
519.38, 24104.183
519.58, 24045.611
519.78, 23659.364
519.98, 23898.567
520.18, 24154.972
520.38, 24259.419
520.58, 24025.541
520.78, 23765.858
520.98, 24503.536
521.18, 24473.636
521.38, 24417.112
521.58, 24227.880
521.78, 24731.680
521.98, 24406.872
522.18, 24186.101
522.38, 24565.385
522.58, 24188.968
522.78, 24759.123
522.98, 24558.832
523.18, 24268.839
523.38, 24696.046
523.58, 24622.319
523.78, 24282.765
523.98, 24655.905
524.18, 24935.248
524.38, 24671.060
524.58, 24545.315
524.78, 24302.836
524.98, 24995.868
525.18, 24838.584
525.38, 24595.695
525.58, 24569.481
525.78, 24917.226
525.98, 24983.171
526.18, 24578.902
526.38, 24537.942
526.58, 25014.710
526.78, 24714.068
526.98, 24786.975
527.17, 24488.791
527.37, 24823.020
527.57, 24830.802
527.77, 24486.334
527.97, 24629.282
528.17, 24595.286
528.37, 24784.927
528.57, 24507.632
528.77, 24539.990
528.97, 24920.913
529.17, 24984.400
529.37, 24718.164
529.57, 24445.784
529.77, 24562.928
529.97, 24852.101
530.17, 24583.817
530.36, 24346.252
530.56, 24744.787
530.76, 24428.171
530.96, 24357.721
531.16, 24466.673
531.36, 24776.736
531.56, 24982.352
531.76, 24029.227
531.96, 24130.397
532.16, 24673.108
532.36, 24275.802
532.56, 24179.957
532.76, 24040.286
532.95, 24259.009
533.15, 24425.714
533.35, 24001.784
533.55, 23931.744
533.75, 24803.359
533.95, 24157.839
534.15, 24114.013
534.35, 23930.105
534.55, 24622.728
534.75, 24266.382
534.94, 23939.526
535.14, 24051.345
535.34, 24301.607
535.54, 24197.980
535.74, 24208.629
535.94, 23835.899
536.14, 24309.799
536.34, 24674.337
536.54, 24145.961
536.73, 23795.758
536.93, 24245.083
537.13, 24475.684
537.33, 23956.319
537.53, 23608.165
537.73, 23724.899
537.93, 23752.751
538.13, 23855.150
538.32, 23435.726
538.52, 23648.714
538.72, 23838.766
538.92, 23511.910
539.12, 23380.840
539.32, 23969.017
539.52, 23746.198
539.72, 23611.032
539.91, 23350.530
540.11, 23601.201
540.31, 23865.799
540.51, 23195.294
540.71, 23692.541
540.91, 24064.452
541.11, 23555.327
541.30, 23335.375
541.50, 23152.287
541.70, 23421.390
541.90, 23532.799
542.10, 23178.091
542.30, 23236.253
542.49, 23839.175
542.69, 23466.036
542.89, 23100.678
543.09, 23364.866
543.29, 23853.921
543.49, 23926.828
543.68, 23452.929
543.88, 23315.715
544.08, 23598.334
544.28, 23554.917
544.48, 23369.371
544.68, 23072.826
544.87, 23639.703
545.07, 23230.110
545.27, 22947.490
545.47, 23044.973
545.67, 23172.766
545.87, 23198.161
546.06, 22845.911
546.26, 22788.977
546.46, 23244.855
546.66, 23106.003
546.86, 23246.084
547.05, 22825.840
547.25, 23186.283
547.45, 23668.375
547.65, 22855.331
547.85, 22299.922
548.04, 23420.980
548.24, 23069.549
548.44, 22698.047
548.64, 22792.254
548.84, 23201.028
549.03, 22419.114
549.23, 22498.165
549.43, 22606.708
549.63, 22839.357
549.83, 22736.959
550.02, 22550.184
550.22, 22562.062
550.42, 22728.767
550.62, 22739.826
550.82, 22146.324
551.01, 22157.793
551.21, 22753.342
551.41, 22929.468
551.61, 22116.015
551.80, 22483.011
552.00, 22441.232
552.20, 22510.044
552.40, 22107.003
552.60, 22374.468
552.79, 22629.645
552.99, 22452.291
553.19, 22088.162
553.39, 21964.055
553.58, 22395.357
553.78, 21884.594
553.98, 22158.203
554.18, 21984.945
554.37, 21868.210
554.57, 22072.598
554.77, 21792.435
554.97, 22073.826
555.16, 22410.103
555.36, 22528.066
555.56, 21818.240
555.76, 21772.365
555.95, 22452.291
556.15, 21937.432
556.35, 21948.491
556.55, 21532.343
556.74, 21916.133
556.94, 21857.151
557.14, 21659.727
557.34, 21613.033
557.53, 22251.180
557.73, 22030.000
557.93, 21686.351
558.13, 21908.350
558.32, 22048.022
558.52, 22228.243
558.72, 21681.436
558.92, 21830.118
559.11, 22107.823
559.31, 22082.428
559.51, 21896.063
559.70, 21743.284
559.90, 21874.764
560.10, 21588.458
560.30, 21534.391
560.49, 21529.067
560.69, 21709.288
560.89, 22025.904
561.08, 21463.122
561.28, 21292.322
561.48, 21635.971
561.68, 21608.528
561.87, 21233.750
562.07, 21142.820
562.27, 21188.694
562.46, 21336.558
562.66, 21120.702
562.86, 20861.429
563.05, 21207.945
563.25, 21066.226
563.45, 20806.543
563.65, 20822.517
563.84, 21294.779
564.04, 20949.082
564.24, 20637.381
564.43, 20691.857
564.63, 21217.366
564.83, 21058.853
565.02, 20694.315
565.22, 20763.946
565.42, 20984.717
565.61, 20968.742
565.81, 20797.123
566.01, 20842.588
566.20, 20941.709
566.40, 20738.960
566.60, 20687.761
566.79, 20416.610
566.99, 21103.499
567.19, 20977.754
567.38, 20707.831
567.58, 20515.732
567.78, 20928.193
567.97, 20758.621
568.17, 20425.212
568.37, 20473.953
568.56, 21223.100
568.76, 20847.503
568.96, 20549.728
569.15, 20574.713
569.35, 22195.066
569.55, 21054.348
569.74, 20330.595
569.94, 20247.038
570.14, 20856.104
570.33, 20644.754
570.53, 20076.647
570.73, 20212.632
570.92, 20310.525
571.12, 20442.005
571.31, 19866.116
571.51, 20032.411
571.71, 20466.990
571.90, 20666.872
572.10, 19966.876
572.30, 20048.385
572.49, 20668.101
572.69, 20589.868
572.88, 20272.023
573.08, 19830.481
573.28, 20744.285
573.47, 20375.651
573.67, 19870.622
573.87, 20041.013
574.06, 20494.842
574.26, 20639.429
574.45, 20022.171
574.65, 19814.507
574.85, 20535.392
575.04, 20145.869
575.24, 20138.496
575.44, 19841.131
575.63, 20327.728
575.83, 19974.658
576.02, 19812.869
576.22, 19855.057
576.42, 20342.883
576.61, 20278.167
576.81, 19490.519
577.00, 19804.677
577.20, 20063.540
577.40, 20116.378
577.59, 19484.784
577.79, 19619.131
577.98, 19939.024
578.18, 19683.028
578.37, 19771.910
578.57, 19439.729
578.77, 19562.607
578.96, 19381.976
579.16, 19351.666
579.35, 19280.807
579.55, 19650.670
579.75, 19339.788
579.94, 19583.496
580.14, 19252.135
580.33, 20019.714
580.53, 19568.751
580.72, 19263.194
580.92, 19554.006
581.12, 19451.607
581.31, 19553.596
581.51, 19406.961
581.70, 19316.851
581.90, 20035.688
582.09, 19323.404
582.29, 19021.534
582.48, 19075.600
582.68, 19709.651
582.88, 19653.537
583.07, 19046.519
583.27, 18820.014
583.46, 19461.028
583.66, 19393.854
583.85, 19077.238
584.05, 19028.906
584.24, 19787.064
584.44, 19418.840
584.63, 18888.006
584.83, 18759.803
585.03, 19444.234
585.22, 19021.534
585.42, 18530.021
585.61, 18786.427
585.81, 19115.331
586.00, 19020.715
586.20, 18814.279
586.39, 18569.752
586.59, 19027.678
586.78, 18852.372
586.98, 18804.449
587.17, 18741.781
587.37, 19170.216
587.56, 19340.198
587.76, 18579.172
587.95, 18702.870
588.15, 18668.054
588.34, 19244.762
588.54, 18519.781
588.74, 18621.361
588.93, 18616.036
589.13, 19027.268
589.32, 18354.306
589.52, 18114.284
589.71, 19106.320
589.91, 18695.907
590.10, 18323.996
590.30, 18360.859
590.49, 18667.235
590.69, 18680.342
590.88, 18260.509
591.08, 18178.590
591.27, 18655.357
591.47, 18324.815
591.66, 18118.789
591.85, 18114.284
592.05, 18767.995
592.24, 18684.028
592.44, 18072.505
592.63, 17884.502
592.83, 18621.361
593.02, 18281.398
593.22, 17910.716
593.41, 17786.609
593.61, 18230.608
593.80, 18778.645
594.00, 17868.118
594.19, 17758.347
594.39, 18114.693
594.58, 17882.454
594.78, 17519.963
594.97, 17485.148
595.17, 17891.874
595.36, 17979.937
595.56, 17594.509
595.75, 17404.867
595.94, 17793.981
596.14, 17693.631
596.33, 17247.993
596.53, 17132.487
596.72, 17728.856
596.92, 17529.793
597.11, 17136.583
597.31, 17385.207
597.50, 17737.048
597.69, 17838.217
597.89, 17336.875
598.08, 16981.347
598.28, 17950.856
598.47, 17494.568
598.67, 17353.258
598.86, 17224.236
599.06, 17863.612
599.25, 17329.502
599.44, 17234.476
599.64, 17186.554
599.83, 17422.480
600.03, 17473.269
600.22, 17018.211
600.42, 17109.960
600.61, 17406.915
600.80, 17236.524
601.00, 17120.200
601.19, 17014.115
601.39, 17512.590
601.58, 17182.048
601.78, 16947.761
601.97, 16985.034
602.16, 17355.716
602.36, 16904.753
602.55, 16917.041
602.75, 16541.034
602.94, 17259.871
603.13, 17255.365
603.33, 16538.167
603.52, 16501.303
603.72, 17000.598
603.91, 16570.934
604.10, 16384.569
604.30, 16334.599
604.49, 16751.565
604.69, 16592.643
604.88, 16179.772
605.07, 16195.337
605.27, 16421.433
605.46, 16275.617
605.66, 16226.056
605.85, 16068.772
606.04, 16636.469
606.24, 16641.384
606.43, 15829.979
606.62, 16020.440
606.82, 16231.381
607.01, 16446.418
607.21, 15965.964
607.40, 16080.651
607.59, 16295.687
607.79, 16028.632
607.98, 15978.662
608.17, 15574.393
608.37, 16292.411
608.56, 16644.661
608.76, 15530.566
608.95, 15618.219
609.14, 16217.045
609.34, 15864.385
609.53, 15433.492
609.72, 15260.644
609.92, 15857.832
610.11, 15832.846
610.30, 15398.267
610.50, 15358.946
610.69, 15490.836
610.88, 15816.463
611.08, 15300.784
611.27, 15121.382
611.46, 15915.994
611.66, 15486.330
611.85, 15184.869
612.04, 15278.666
612.24, 15890.599
612.43, 15673.924
612.62, 15220.094
612.82, 15243.441
613.01, 15692.765
613.20, 15773.865
613.40, 15451.515
613.59, 15271.703
613.78, 15782.057
613.98, 15258.596
614.17, 15310.614
614.36, 15418.338
614.56, 16859.288
614.75, 15670.238
614.94, 15502.304
615.14, 15526.470
615.33, 16058.533
615.52, 16134.717
615.72, 15518.278
615.91, 15641.566
616.10, 16048.702
616.30, 16041.739
616.49, 15893.876
616.68, 15747.241
616.88, 16436.178
617.07, 16540.624
617.26, 15653.444
617.45, 15814.415
617.65, 16725.761
617.84, 15975.385
618.03, 15677.610
618.23, 15897.562
618.42, 16278.484
618.61, 16119.562
618.80, 15973.337
619.00, 16008.972
619.19, 16771.226
619.38, 16539.805
619.58, 16084.337
619.77, 16325.178
619.96, 16933.015
620.15, 16559.875
620.35, 16452.152
620.54, 16392.351
620.73, 16596.329
620.93, 16772.454
621.12, 16325.588
621.31, 16443.141
621.50, 16707.329
621.70, 17366.775
621.89, 16151.101
622.08, 16130.211
622.27, 16949.809
622.47, 16938.340
622.66, 16364.499
622.85, 16331.732
623.04, 16666.370
623.24, 16494.750
623.43, 16403.820
623.62, 16155.606
623.81, 16652.853
624.01, 16702.004
624.20, 16058.533
624.39, 16262.101
624.58, 16393.580
624.78, 16583.632
624.97, 15955.725
625.16, 15955.725
625.35, 16385.388
625.55, 16412.012
625.74, 15895.924
625.93, 15891.009
626.12, 16211.311
626.32, 16089.662
626.51, 15687.441
626.70, 15741.097
626.89, 16091.710
627.09, 16086.385
627.28, 15443.732
627.47, 15593.644
627.66, 16245.307
627.85, 15994.226
628.05, 15363.862
628.24, 15513.363
628.43, 16121.200
628.62, 16051.979
628.82, 15364.271
629.01, 15453.153
629.20, 15764.035
629.39, 15855.374
629.58, 15240.164
629.78, 15249.994
629.97, 15773.865
630.16, 15641.566
630.35, 15361.404
630.54, 15331.094
630.74, 15434.312
630.93, 15526.880
631.12, 15142.271
631.31, 15028.404
631.50, 15804.584
631.70, 15755.024
631.89, 15052.161
632.08, 15165.618
632.27, 15134.079
632.46, 15678.839
632.65, 15004.238
632.85, 14739.641
633.04, 15345.430
633.23, 15390.485
633.42, 14760.940
633.61, 14818.283
633.81, 15262.282
634.00, 15110.733
634.19, 14735.545
634.38, 14638.881
634.57, 14765.855
634.76, 14756.434
634.96, 14386.980
635.15, 14357.080
635.34, 14887.094
635.53, 14817.873
635.72, 14493.065
635.91, 14187.918
636.11, 14993.589
636.30, 14791.250
636.49, 14363.224
636.68, 14096.578
636.87, 14328.409
637.06, 15011.201
637.26, 14008.516
637.45, 14008.516
637.64, 14308.338
637.83, 14378.379
638.02, 13972.472
638.21, 13936.427
638.40, 14740.050
638.60, 14570.478
638.79, 13950.354
638.98, 13543.217
639.17, 14228.058
639.36, 13892.191
639.55, 13632.509
639.74, 13506.764
639.93, 13761.531
640.13, 13960.593
640.32, 13474.815
640.51, 13375.694
640.70, 13940.114
640.89, 13795.117
641.08, 13407.232
641.27, 13185.232
641.46, 13777.505
641.66, 13879.084
641.85, 13246.671
642.04, 13065.631
642.23, 13761.531
642.42, 13453.926
642.61, 13160.657
642.80, 13059.078
642.99, 13503.487
643.18, 13817.645
643.38, 13065.631
643.57, 13161.066
643.76, 13442.867
643.95, 13629.642
644.14, 13285.583
644.33, 13205.302
644.52, 13859.014
644.71, 13464.985
644.90, 13109.867
645.09, 12998.867
645.29, 13588.273
645.48, 13390.848
645.67, 13267.970
645.86, 13220.457
646.05, 13571.889
646.24, 13936.018
646.43, 13100.037
646.62, 13166.801
646.81, 13491.199
647.00, 13514.136
647.19, 12941.934
647.38, 13129.528
647.57, 13510.859
647.77, 13599.332
647.96, 13120.926
648.15, 12948.897
648.34, 13703.778
648.53, 13700.092
648.72, 13138.948
648.91, 13198.749
649.10, 13614.896
649.29, 13132.804
649.48, 12914.901
649.67, 12961.594
649.86, 13528.882
650.05, 12919.816
650.24, 12795.299
650.43, 13126.251
650.62, 13134.033
650.81, 13399.450
651.01, 12746.967
651.20, 12682.251
651.39, 13264.694
651.58, 13184.413
651.77, 12392.259
651.96, 12395.536
652.15, 12976.340
652.34, 12721.163
652.53, 12558.964
652.72, 12413.967
652.91, 13018.528
653.10, 12835.030
653.29, 12283.717
653.48, 12212.038
653.67, 12566.746
653.86, 12458.204
654.05, 12071.547
654.24, 12027.311
654.43, 12552.410
654.62, 12408.643
654.81, 12042.875
655.00, 12019.119
655.19, 12403.318
655.38, 12626.547
655.57, 11981.846
655.76, 11946.211
655.95, 12384.067
656.14, 12204.665
656.33, 11949.078
656.52, 12071.957
656.71, 12111.687
656.90, 12210.809
657.09, 11786.060
657.28, 11750.016
657.47, 12132.986
657.66, 12368.912
657.85, 11624.680
658.04, 11773.363
658.23, 11906.481
658.42, 12220.230
658.61, 11617.717
658.80, 11469.444
658.99, 11969.968
659.18, 12392.259
659.37, 11379.334
659.56, 11494.429
659.75, 11898.698
659.94, 11812.274
660.13, 11366.227
660.32, 11670.964
660.51, 11929.008
660.70, 11812.684
660.89, 11511.223
661.08, 11307.245
661.27, 11927.370
661.46, 11673.831
661.65, 11493.201
661.84, 11589.455
662.03, 11906.071
662.22, 11944.573
662.41, 11353.529
662.60, 11263.419
662.78, 11774.592
662.97, 11940.887
663.16, 11335.507
663.35, 11413.330
663.54, 11952.355
663.73, 11960.547
663.92, 11349.024
664.11, 11294.957
664.30, 11691.854
664.49, 11948.669
664.68, 11270.791
664.87, 11272.430
665.06, 11747.149
665.25, 11724.621
665.44, 11278.983
665.63, 11221.230
665.82, 11744.282
666.01, 12092.846
666.19, 11250.312
666.38, 11275.297
666.57, 11947.440
666.76, 11452.651
666.95, 11308.474
667.14, 11052.068
667.33, 11535.389
667.52, 11952.355
667.71, 11237.205
667.90, 11265.876
668.09, 11790.156
668.28, 11490.333
668.46, 11084.836
668.65, 11131.120
668.84, 11852.005
669.03, 11224.507
669.22, 11001.688
669.41, 11132.758
669.60, 12102.676
669.79, 11271.610
669.98, 11068.042
670.17, 11019.301
670.35, 11524.739
670.54, 11317.075
670.73, 10910.758
670.92, 10998.821
671.11, 11373.190
671.30, 10971.788
671.49, 10861.197
671.68, 10830.888
671.87, 11509.994
672.05, 11563.651
672.24, 10811.637
672.43, 11000.050
672.62, 11195.836
672.81, 11507.536
673.00, 10951.718
673.19, 10796.072
673.38, 11249.492
673.57, 11206.485
673.75, 11127.433
673.94, 10820.238
674.13, 11277.754
674.32, 11179.042
674.51, 10862.426
674.70, 10907.891
674.89, 10864.474
675.07, 11238.024
675.26, 11175.765
675.45, 10887.411
675.64, 11299.463
675.83, 11313.389
676.02, 10848.910
676.21, 10963.596
676.39, 11186.415
676.58, 10759.618
676.77, 10460.615
676.96, 10638.788
677.15, 10997.183
677.34, 11274.887
677.52, 10520.825
677.71, 10445.460
677.90, 10971.378
678.09, 11045.924
678.28, 10549.497
678.47, 10570.795
678.65, 10934.105
678.84, 11181.909
679.03, 10419.246
679.22, 10379.925
679.41, 10761.666
679.60, 10846.042
679.78, 10590.866
679.97, 10492.563
680.16, 11219.592
680.35, 11126.205
680.54, 10939.430
680.73, 10548.677
680.91, 11165.116
681.10, 11211.400
681.29, 10742.415
681.48, 10790.747
681.67, 11268.334
681.85, 10988.172
682.04, 10828.840
682.23, 10832.116
682.42, 11124.566
682.61, 11092.208
682.79, 10793.614
682.98, 10975.884
683.17, 11307.655
683.36, 11190.101
683.55, 10877.991
683.73, 10979.570
683.92, 11185.596
684.11, 11240.891
684.30, 10973.017
684.49, 10918.131
684.67, 11175.765
684.86, 11077.873
685.05, 10655.991
685.24, 10831.707
685.42, 11386.706
685.61, 10970.559
685.80, 10742.006
685.99, 10792.386
686.18, 10941.478
686.36, 10878.400
686.55, 10737.500
686.74, 10640.426
686.93, 10838.260
687.11, 11073.777
687.30, 10403.272
687.49, 10372.962
687.68, 10925.913
687.86, 10825.153
688.05, 10445.869
688.24, 10387.298
688.43, 11106.135
688.61, 10795.253
688.80, 10361.083
688.99, 10283.261
689.18, 10962.777
689.36, 10833.345
689.55, 10233.700
689.74, 10100.172
689.93, 10736.681
690.11, 10502.803
690.30, 10118.194
690.49, 9996.545
690.68, 10955.404
690.86, 10327.906
691.05, 9994.088
691.24, 9895.785
691.43, 10314.799
691.61, 10510.585
691.80, 9847.453
691.99, 9670.099
692.17, 10346.338
692.36, 10191.921
692.55, 9811.818
692.74, 9475.951
692.92, 9843.357
693.11, 9854.826
693.30, 9681.158
693.49, 9414.103
693.67, 9647.981
693.86, 9832.298
694.05, 9362.494
694.23, 9299.416
694.42, 9967.054
694.61, 9437.040
694.79, 9162.203
694.98, 9097.077
695.17, 9752.427
695.36, 9110.594
695.54, 9122.472
695.73, 8911.941
695.92, 9409.188
696.10, 9476.361
696.29, 8882.450
696.48, 9108.955
696.66, 9718.840
696.85, 9024.579
697.04, 8837.804
697.22, 8843.948
697.41, 9451.376
697.60, 9038.505
697.79, 8640.380
697.97, 8733.768
698.16, 9447.280
698.35, 9038.096
698.53, 8727.624
698.72, 8604.336
698.91, 9473.084
699.09, 9008.605
699.28, 8704.686
699.47, 8798.893
699.65, 8861.561
699.84, 9264.191
700.03, 8586.723
700.21, 8590.819
700.40, 8796.845
700.59, 8948.395
700.77, 8662.498
700.96, 8526.104
701.15, 9187.597
701.33, 9088.476
701.52, 8418.380
701.70, 8488.421
701.89, 9125.749
702.08, 8730.900
702.26, 8346.292
702.45, 8242.665
702.64, 8498.251
702.82, 8789.882
703.01, 8393.395
703.20, 8227.100
703.38, 9214.631
703.57, 8555.185
703.76, 8350.797
703.94, 8372.915
704.13, 8587.133
704.31, 8347.930
704.50, 8358.989
704.69, 8362.676
704.87, 8543.716
705.06, 8595.734
705.25, 8213.583
705.43, 8106.680
705.62, 8626.454
705.80, 8655.945
705.99, 8279.938
706.18, 8068.997
706.36, 8480.229
706.55, 8284.034
706.73, 8006.329
706.92, 8121.834
707.11, 8587.952
707.29, 8671.100
707.48, 8274.203
707.66, 8146.000
707.85, 8303.694
708.04, 8476.952
708.22, 8153.373
708.41, 8237.750
708.59, 8856.646
708.78, 8644.476
708.97, 8062.853
709.15, 8333.185
709.34, 8773.089
709.52, 8687.074
709.71, 8281.576
709.90, 8229.148
710.08, 8977.066
710.27, 8429.439
710.45, 8362.266
710.64, 8290.587
710.82, 8888.184
711.01, 8507.672
711.20, 8370.867
711.38, 8293.864
711.57, 8701.410
711.75, 8503.576
711.94, 8483.506
712.12, 8419.609
712.31, 8673.967
712.50, 9013.110
712.68, 8262.325
712.87, 8485.963
713.05, 8710.830
713.24, 8479.410
713.42, 8252.085
713.61, 8304.923
713.79, 8854.188
713.98, 8422.476
714.17, 8259.048
714.35, 8222.595
714.54, 8574.436
714.72, 8465.893
714.91, 8259.458
715.09, 8283.214
715.28, 8332.775
715.46, 8991.812
715.65, 7991.174
715.83, 8069.816
716.02, 8772.269
716.21, 8540.849
716.39, 8059.167
716.58, 7817.506
716.76, 8352.026
716.95, 8530.199
717.13, 7857.646
717.32, 7774.909
717.50, 8588.771
717.69, 8271.746
717.87, 7665.547
718.06, 7615.167
718.24, 7899.835
718.43, 8085.790
718.61, 7647.934
718.80, 7584.447
718.98, 7988.716
719.17, 7884.270
719.35, 7566.425
719.54, 7428.392
719.72, 7650.802
719.91, 7770.813
720.09, 7133.485
720.28, 7417.743
720.46, 7713.469
720.65, 8067.358
720.83, 7231.378
721.02, 7380.470
721.20, 7795.388
721.39, 7597.145
721.57, 7143.315
721.76, 7354.665
721.94, 7539.392
722.13, 7559.462
722.31, 7264.145
722.50, 7341.968
722.68, 7465.256
722.87, 7849.864
723.05, 7127.341
723.24, 7821.602
723.42, 7490.241
723.61, 7795.798
723.79, 7004.053
723.98, 7050.337
724.16, 7842.901
724.34, 7291.178
724.53, 7219.909
724.71, 7285.444
724.90, 7433.307
725.08, 7657.765
725.27, 7101.946
725.45, 7047.880
725.64, 7241.208
725.82, 7833.480
726.01, 6923.773
726.19, 7046.241
726.38, 7517.274
726.56, 7340.739
726.74, 7301.828
726.93, 7061.806
727.11, 8156.650
727.30, 7441.090
727.48, 7203.525
727.67, 7178.130
727.85, 7672.510
728.04, 7876.897
728.22, 7230.968
728.40, 7293.226
728.59, 7624.997
728.77, 7616.805
728.96, 7104.404
729.14, 7186.732
729.33, 8168.528
729.51, 7793.750
729.69, 7415.285
729.88, 7280.939
730.06, 7827.746
730.25, 7846.178
730.43, 7419.791
730.61, 7482.049
730.80, 7869.115
730.98, 8088.248
731.17, 7554.547
731.35, 7337.462
731.54, 7786.377
731.72, 8048.517
731.90, 7406.274
732.09, 7502.119
732.27, 8134.532
732.46, 8122.654
732.64, 7426.344
732.82, 7473.448
733.01, 7857.646
733.19, 7919.086
733.38, 7159.699
733.56, 7544.717
733.74, 7926.458
733.93, 7897.377
734.11, 7307.972
734.29, 7239.570
734.48, 7746.237
734.66, 7640.971
734.85, 7103.584
735.03, 7085.972
735.21, 7422.658
735.40, 7804.809
735.58, 7108.909
735.77, 6969.238
735.95, 7555.366
736.13, 7187.551
736.32, 6805.810
736.50, 6925.821
736.68, 7165.023
736.87, 7456.654
737.05, 6816.459
737.23, 6899.197
737.42, 7304.695
737.60, 7119.968
737.79, 6759.526
737.97, 6700.544
738.15, 7337.053
738.34, 7116.282
738.52, 6780.415
738.70, 6851.275
738.89, 7347.702
739.07, 7119.559
739.25, 6847.588
739.44, 6806.219
739.62, 7455.425
739.80, 6975.791
739.99, 6729.216
740.17, 6861.514
740.35, 7515.226
740.54, 7355.894
740.72, 6707.098
740.90, 6657.537
741.09, 6901.245
741.27, 7033.134
741.45, 6764.850
741.64, 6580.533
741.82, 7251.038
742.00, 7026.990
742.19, 6714.061
742.37, 6704.640
742.55, 6912.714
742.74, 6997.909
742.92, 6601.013
743.10, 6752.563
743.29, 7142.496
743.47, 7201.477
743.65, 6434.308
743.83, 6638.696
744.02, 6876.260
744.20, 6788.197
744.38, 6370.821
744.57, 6374.508
744.75, 6543.670
744.93, 6693.581
745.12, 6363.448
745.30, 6363.448
745.48, 7300.599
745.66, 6499.024
745.85, 6209.851
746.03, 6248.353
746.21, 6919.267
746.40, 6628.865
746.58, 6313.068
746.76, 6205.755
746.94, 6858.647
747.13, 6718.976
747.31, 6167.663
747.49, 6332.319
747.68, 6614.939
747.86, 6777.548
748.04, 6212.308
748.22, 6098.441
748.41, 6758.297
748.59, 6740.275
748.77, 6086.563
748.95, 6205.345
749.14, 6509.264
749.32, 6593.231
749.50, 6099.670
749.68, 5994.814
749.87, 6408.913
750.05, 6553.090
750.23, 6138.582
750.42, 6120.559
750.60, 6403.589
750.78, 6378.194
750.96, 6157.013
751.15, 6203.297
751.33, 6236.474
751.51, 6623.541
751.69, 6103.766
751.87, 6020.209
752.06, 6168.072
752.24, 6397.854
752.42, 5928.460
752.60, 5933.785
752.79, 6652.212
752.97, 6423.249
753.15, 5928.050
753.33, 5941.157
753.52, 6226.235
753.70, 6207.393
753.88, 5773.634
754.06, 5921.087
754.24, 6258.183
754.43, 6431.441
754.61, 5791.656
754.79, 5759.707
754.97, 6120.150
755.16, 6362.629
755.34, 5940.748
755.52, 5933.375
755.70, 6295.456
755.88, 5970.648
756.07, 5829.748
756.25, 5863.744
756.43, 6401.950
756.61, 6081.238
756.79, 5971.467
756.98, 5785.512
757.16, 6351.570
757.34, 6161.928
757.52, 5971.058
757.70, 6001.368
757.89, 6657.127
758.07, 6963.913
758.25, 6088.202
758.43, 6030.449
758.61, 6542.851
758.80, 6662.042
758.98, 6200.021
759.16, 6186.094
759.34, 6820.146
759.52, 6588.315
759.70, 6265.965
759.89, 6369.592
760.07, 6659.585
760.25, 6801.304
760.43, 6236.474
760.61, 6451.511
760.79, 6722.253
760.98, 6899.197
761.16, 6620.264
761.34, 6741.913
761.52, 6911.075
761.70, 7364.496
761.88, 7166.252
762.07, 7108.909
762.25, 8082.513
762.43, 7856.418
762.61, 7589.363
762.79, 7656.126
762.97, 8324.583
763.15, 8320.897
763.34, 8021.074
763.52, 8179.587
763.70, 8977.885
763.88, 9002.871
764.06, 8582.627
764.24, 8435.583
764.42, 9004.919
764.61, 8957.815
764.79, 8526.513
764.97, 8710.011
765.15, 8789.472
765.33, 9106.498
765.51, 8407.321
765.69, 8601.059
765.87, 8754.657
766.06, 8671.509
766.24, 7933.421
766.42, 7832.252
766.60, 8150.506
766.78, 8170.167
766.96, 7556.595
767.14, 7284.215
767.32, 7753.200
767.50, 7223.595
767.69, 6857.419
767.87, 6896.740
768.05, 7345.245
768.23, 6789.426
768.41, 6674.740
768.59, 6249.991
768.77, 6739.456
768.95, 6625.588
769.13, 6061.168
769.32, 6114.825
769.50, 6620.673
769.68, 6531.792
769.86, 6043.556
770.04, 5983.346
770.22, 5970.648
770.40, 6282.349
770.58, 5785.512
770.76, 5701.135
770.94, 6371.640
771.12, 5956.722
771.30, 5616.350
771.49, 5757.659
771.67, 6068.541
771.85, 5960.818
772.03, 5613.482
772.21, 5577.848
772.39, 5906.751
772.57, 6124.246
772.75, 5403.361
772.93, 5571.294
773.11, 5993.585
773.29, 5873.165
773.47, 5416.468
773.65, 5471.353
773.83, 6017.751
774.01, 5575.390
774.19, 5274.339
774.38, 5409.095
774.56, 5905.113
774.74, 5801.895
774.92, 5190.782
775.10, 5176.855
775.28, 5359.944
775.46, 5790.836
775.64, 4981.070
775.82, 5074.867
776.00, 5219.453
776.18, 5318.984
776.36, 4986.394
776.54, 5190.782
776.72, 5355.438
776.90, 5396.807
777.08, 4996.634
777.26, 5024.077
777.44, 5299.324
777.62, 5502.073
777.80, 4924.955
777.98, 4977.793
778.16, 5183.818
778.34, 5375.508
778.52, 4994.177
778.70, 4847.542
778.88, 5132.210
779.06, 4982.298
779.24, 4825.424
779.42, 4939.291
779.60, 5486.099
779.78, 5239.114
779.96, 4608.339
780.14, 4715.243
780.32, 5121.560
780.50, 5299.734
780.68, 4678.789
780.86, 4682.066
781.04, 5112.959
781.22, 4949.531
781.40, 4774.225
781.58, 4593.184
781.76, 4993.357
781.94, 5146.955
782.12, 4655.033
782.30, 4796.343
782.48, 5078.553
782.66, 5034.317
782.84, 4696.812
783.02, 4670.188
783.20, 5123.608
783.38, 5156.785
783.56, 4424.432
783.74, 4465.801
783.92, 4854.505
784.10, 4963.457
784.28, 4526.011
784.46, 4495.291
784.64, 4826.243
784.82, 4843.036
785.00, 4337.598
785.18, 4317.937
785.36, 5014.247
785.54, 4609.568
785.72, 4452.284
785.90, 4406.819
786.08, 4563.694
786.26, 4762.756
786.43, 4528.468
786.61, 4461.295
786.79, 5197.335
786.97, 5182.590
787.15, 4497.339
787.33, 4442.454
787.51, 4724.664
787.69, 5120.741
787.87, 4441.635
788.05, 4513.314
788.23, 5602.423
788.41, 4828.291
788.59, 4705.003
788.77, 4624.313
788.95, 5092.070
789.13, 5010.970
789.30, 4631.686
789.48, 4476.860
789.66, 5078.962
789.84, 5037.594
790.02, 4607.930
790.20, 4383.472
790.38, 5056.435
790.56, 4877.852
790.74, 4486.690
790.92, 4616.941
791.10, 5085.926
791.28, 5087.974
791.45, 4667.321
791.63, 4323.262
791.81, 5263.689
791.99, 4971.649
792.17, 4327.358
792.35, 4406.410
792.53, 4368.727
792.71, 4865.564
792.89, 4247.487
793.07, 4461.705
793.24, 4616.531
793.42, 4901.199
793.60, 4211.033
793.78, 4245.849
793.96, 4639.059
794.14, 4604.653
794.32, 4203.251
794.50, 4250.764
794.67, 4681.657
794.85, 4561.236
795.03, 4331.044
795.21, 4227.417
795.39, 4672.646
795.57, 4703.365
795.75, 4304.011
795.93, 4285.989
796.10, 4988.033
796.28, 4465.391
796.46, 4140.583
796.64, 4264.281
796.82, 4852.867
797.00, 4807.402
797.18, 4202.022
797.35, 4161.472
797.53, 4656.671
797.71, 4739.000
797.89, 4467.439
798.07, 4271.653
798.25, 4623.904
798.43, 4854.915
798.60, 4224.140
798.78, 4222.912
798.96, 4957.723
799.14, 4424.432
799.32, 3989.443
799.50, 4161.882
799.67, 4503.893
799.85, 4536.251
800.03, 4124.199
800.21, 4151.642
800.39, 4601.376
800.57, 4549.358
800.74, 4107.406
800.92, 4136.897
801.10, 4348.247
801.28, 4149.185
801.46, 3871.890
801.64, 3950.122
801.81, 4660.767
801.99, 4202.432
802.17, 4110.683
802.35, 4021.801
802.53, 4225.779
802.70, 3739.181
802.88, 3857.144
803.06, 3812.089
803.24, 4514.133
803.42, 4414.601
803.59, 3860.011
803.77, 3678.561
803.95, 4668.959
804.13, 4415.421
804.31, 3906.296
804.48, 3865.336
804.66, 4389.207
804.84, 4045.557
805.02, 3949.303
805.20, 3888.273
805.37, 4174.989
805.55, 4299.915
805.73, 3836.665
805.91, 3993.539
806.08, 4428.528
806.26, 4249.535
806.44, 3841.170
806.62, 3743.687
806.80, 4295.819
806.97, 4164.340
807.15, 3896.465
807.33, 3990.672
807.51, 4454.742
807.68, 3792.429
807.86, 3902.200
808.04, 3847.314
808.22, 4312.613
808.39, 5933.375
808.57, 3855.506
808.75, 3954.218
808.93, 4270.015
809.10, 4097.576
809.28, 3857.144
809.46, 3828.473
809.64, 4576.801
809.81, 4086.926
809.99, 3875.166
810.17, 3711.329
810.35, 4830.749
810.52, 4270.424
810.70, 3909.572
810.88, 3868.613
811.06, 4329.406
811.23, 4542.804
811.41, 3810.860
811.59, 3699.860
811.77, 4478.088
811.94, 4045.148
812.12, 3977.565
812.30, 3921.451
812.47, 4345.790
812.65, 4451.055
812.83, 3881.720
813.01, 3886.635
813.18, 4146.727
813.36, 4393.303
813.54, 3779.322
813.71, 3841.580
813.89, 4769.719
814.07, 4390.026
814.25, 4068.495
814.42, 3915.716
814.60, 4611.616
814.78, 4382.244
814.95, 3686.753
815.13, 3932.919
815.31, 4202.841
815.49, 4476.450
815.66, 3847.724
815.84, 3941.521
816.02, 4531.336
816.19, 4299.915
816.37, 4009.923
816.55, 4061.122
816.72, 4711.147
816.90, 4285.579
817.08, 3888.683
817.25, 4002.141
817.43, 4657.081
817.61, 4416.240
817.78, 4239.705
817.96, 4362.993
818.14, 4414.192
818.31, 4753.335
818.49, 4287.218
818.67, 4346.199
818.84, 4637.830
819.02, 4661.586
819.20, 4538.299
819.37, 4744.734
819.55, 5152.280
819.73, 5508.217
819.90, 5189.553
820.08, 5636.420
820.26, 6152.098
820.43, 6423.249
820.61, 6165.205
820.79, 6378.194
820.96, 7166.252
821.14, 7358.352
821.32, 7518.503
821.49, 7695.038
821.67, 8368.820
821.85, 8657.583
822.02, 8575.664
822.20, 8747.284
822.37, 9686.483
822.55, 9292.044
822.73, 9571.796
822.90, 9678.700
823.08, 10506.899
823.26, 10089.523
823.43, 10080.102
823.61, 10122.290
823.78, 10479.046
823.96, 10234.519
824.14, 10090.342
824.31, 9995.726
824.49, 10645.751
824.67, 10563.832
824.84, 9740.959
825.02, 9571.796
825.19, 9969.102
825.37, 10202.161
825.55, 9210.535
825.72, 8966.826
825.90, 8920.542
826.07, 8909.483
826.25, 8543.716
826.43, 8211.126
826.60, 8196.381
826.78, 8497.022
826.95, 7846.997
827.13, 7818.735
827.31, 8427.391
827.48, 8185.731
827.66, 7484.916
827.83, 7633.189
828.01, 7734.768
828.19, 7707.326
828.36, 7110.548
828.54, 7183.865
828.71, 7261.688
828.89, 7323.536
829.06, 6678.836
829.24, 6903.293
829.42, 6801.304
829.59, 6918.858
829.77, 6296.685
829.94, 5976.382
830.12, 6238.932
830.29, 5857.600
830.47, 5432.442
830.65, 5232.560
830.82, 5946.072
831.00, 5509.855
831.17, 4896.693
831.35, 4929.870
831.52, 5260.003
831.70, 5382.881
831.87, 4677.561
832.05, 4743.505
832.23, 5220.682
832.40, 5307.516
832.58, 5100.261
832.75, 5032.678
832.93, 5322.261
833.10, 5462.752
833.28, 5221.911
833.45, 5137.534
833.63, 5656.899
833.80, 5210.442
833.98, 5243.210
834.15, 5322.671
834.33, 5699.087
834.51, 5653.623
834.68, 5155.966
834.86, 5147.365
835.03, 5588.907
835.21, 5670.006
835.38, 5221.501
835.56, 5232.970
835.73, 5599.556
835.91, 5679.837
836.08, 4956.904
836.26, 4991.309
836.43, 5266.147
836.61, 5272.291
836.78, 4634.553
836.96, 4406.410
837.13, 5306.287
837.31, 4956.494
837.48, 4362.583
837.66, 4148.775
837.83, 4673.465
838.01, 4654.623
838.18, 3794.067
838.36, 3784.646
838.53, 4297.458
838.71, 4726.302
838.88, 3761.299
839.06, 3889.093
839.23, 4362.583
839.41, 4349.476
839.58, 3796.115
839.76, 3644.156
839.93, 4523.963
840.11, 4426.889
840.28, 3729.761
840.46, 3844.857
840.63, 4020.163
840.81, 4262.233
840.98, 3660.949
841.15, 3669.141
841.33, 4348.247
841.50, 4099.624
841.68, 3723.207
841.85, 3825.606
842.03, 4505.122
842.20, 4456.790
842.38, 3496.702
842.55, 3490.148
842.73, 4180.314
842.90, 3938.654
843.08, 3477.041
843.25, 3585.584
843.42, 3880.901
843.60, 4065.628
843.77, 3208.757
843.95, 3230.875
844.12, 3416.421
844.30, 3908.753
844.47, 3088.337
844.64, 3031.813
844.82, 4052.930
844.99, 3559.779
845.17, 3068.676
845.34, 2872.071
845.52, 3541.348
845.69, 3658.082
845.87, 2987.167
846.04, 2874.529
846.21, 3499.569
846.39, 3558.550
846.56, 2956.448
846.74, 2847.086
846.91, 3389.798
847.08, 3384.473
847.26, 2733.219
847.43, 2874.119
847.61, 3368.499
847.78, 3695.764
847.95, 2837.666
848.13, 2808.175
848.30, 3386.112
848.48, 3319.348
848.65, 2875.348
848.83, 2858.145
849.00, 3296.001
849.17, 3420.517
849.35, 2847.905
849.52, 2714.378
849.69, 3540.119
849.87, 3257.089
850.04, 2716.016
850.22, 2720.112
850.39, 3273.064
850.56, 3585.993
850.74, 2724.208
850.91, 2689.802
851.09, 3169.027
851.26, 3379.968
851.43, 2607.883
851.61, 2845.038
851.78, 3151.414
851.95, 3306.650
852.13, 2723.389
852.30, 2659.492
852.48, 3850.181
852.65, 3325.492
852.82, 2654.168
853.00, 2677.514
853.17, 3496.702
853.34, 2972.831
853.52, 2758.204
853.69, 2576.345
853.86, 3532.746
854.04, 3385.702
854.21, 2756.976
854.38, 2663.588
854.56, 3112.093
854.73, 3089.156
854.90, 2785.647
855.08, 2691.441
855.25, 3362.355
855.42, 2917.127
855.60, 2833.160
855.77, 2808.584
855.95, 3374.643
856.12, 3384.883
856.29, 2590.680
856.46, 2777.046
856.64, 3199.337
856.81, 3349.248
856.98, 2789.743
857.16, 2722.979
857.33, 3072.772
857.50, 3407.820
857.68, 2611.570
857.85, 2712.330
858.02, 3143.632
858.20, 3169.436
858.37, 2728.714
858.54, 2625.906
858.72, 4307.697
858.89, 3552.407
859.06, 2676.695
859.24, 2663.998
859.41, 3391.027
859.58, 3361.536
859.75, 2665.227
859.93, 2673.009
860.10, 3339.008
860.27, 3445.912
860.45, 2663.588
860.62, 2698.813
860.79, 3319.757
860.97, 3361.946
861.14, 2726.256
861.31, 2754.108
861.48, 3317.300
861.66, 3005.189
861.83, 2617.304
862.00, 2598.053
862.17, 3025.669
862.35, 3322.625
862.52, 2675.876
862.69, 2764.348
862.87, 3385.292
863.04, 3346.381
863.21, 2603.378
863.38, 2718.883
863.56, 3347.200
863.73, 3160.425
863.90, 2643.928
864.07, 2882.311
864.25, 3624.905
864.42, 3114.551
864.59, 2594.776
864.76, 2636.965
864.94, 3485.643
865.11, 3146.499
865.28, 2624.267
865.45, 2735.267
865.63, 3299.687
865.80, 3125.200
865.97, 2700.452
866.14, 2628.773
866.32, 3425.023
866.49, 3166.569
866.66, 2882.311
866.83, 2659.902
867.01, 3239.477
867.18, 3227.599
867.35, 2570.201
867.52, 2598.463
867.70, 3577.801
867.87, 3712.148
868.04, 2669.732
868.21, 2703.319
868.38, 3416.421
868.56, 3599.100
868.73, 2729.942
868.90, 2686.525
869.07, 3320.167
869.24, 3537.661
869.42, 2745.917
869.59, 2927.776
869.76, 3670.370
869.93, 3246.030
870.11, 2853.230
870.28, 2730.762
870.45, 3617.122
870.62, 3403.724
870.79, 2766.396
870.97, 2858.555
871.14, 3531.108
871.31, 3492.196
871.48, 2806.946
871.65, 2991.263
871.82, 3740.820
872.00, 3435.672
872.17, 2743.459
872.34, 2851.592
872.51, 3291.905
872.68, 3481.547
872.86, 2949.894
873.03, 2761.481
873.20, 3436.901
873.37, 3866.565
873.54, 2754.108
873.71, 2807.765
873.89, 3764.576
874.06, 3538.890
874.23, 2774.588
874.40, 2928.186
874.57, 3855.096
874.74, 3387.340
874.92, 2927.776
875.09, 2709.872
875.26, 3756.384
875.43, 3590.908
875.60, 2821.691
875.77, 2891.732
875.95, 3216.949
876.12, 3518.001
876.29, 2794.658
876.46, 3008.876
876.63, 3421.337
876.80, 3572.067
876.97, 3113.322
877.15, 2831.931
877.32, 3751.879
877.49, 3456.562
877.66, 3257.909
877.83, 3077.687
878.00, 3414.374
878.17, 4064.808
878.34, 2988.396
878.52, 3144.451
878.69, 3687.982
878.86, 3471.307
879.03, 3044.510
879.20, 3113.732
879.37, 3877.214
879.54, 4427.299
879.71, 3315.252
879.89, 3449.599
880.06, 4443.273
880.23, 4216.358
880.40, 3704.366
880.57, 3900.561
880.74, 4297.458
880.91, 4824.195
881.08, 4101.262
881.25, 4212.262
881.42, 4906.114
881.60, 4708.280
881.77, 4273.701
881.94, 4340.465
882.11, 4861.878
882.28, 5057.254
882.45, 4453.513
882.62, 4621.037
882.79, 5461.523
882.96, 5233.789
883.13, 4479.727
883.30, 4831.158
883.48, 5329.634
883.65, 5065.856
883.82, 4494.882
883.99, 4526.830
884.16, 5370.184
884.33, 4949.531
884.50, 4505.941
884.67, 4576.391
884.84, 4966.324
885.01, 4761.118
885.18, 4315.480
885.35, 4179.495
885.52, 4379.376
885.69, 4637.420
885.87, 3948.074
886.04, 3826.834
886.21, 4536.251
886.38, 4546.491
886.55, 3650.299
886.72, 3625.314
886.89, 4359.716
887.06, 4128.705
887.23, 3529.060
887.40, 3578.211
887.57, 3962.820
887.74, 4068.085
887.91, 3093.252
888.08, 3246.030
888.25, 3947.665
888.42, 4241.753
888.59, 3256.270
888.76, 3139.946
888.93, 3740.410
889.10, 3494.654
889.27, 3176.809
889.44, 3164.112
889.61, 3557.322
889.78, 3554.045
889.95, 3202.614
890.12, 3166.979
890.29, 3753.927
890.46, 3461.886
890.63, 2887.636
890.80, 2902.381
890.97, 3427.890
891.15, 3615.074
891.32, 2906.068
891.49, 3017.887
891.66, 3905.067
891.83, 3445.093
892.00, 2956.857
892.17, 3065.400
892.34, 3597.462
892.51, 3631.868
892.68, 2922.451
892.84, 2912.621
893.01, 3330.816
893.18, 3620.809
893.35, 3037.138
893.52, 2967.097
893.69, 3693.716
##END=
##TITLE= SPECTRASUITE EXPORTED SPECTRA: DARK SPECTRUM
##JCAMP-DX= 5 $$EXPORTED SPECTRASUITE FILE
##DATA TYPE= UV/VIS SPECTRUM
##SAMPLE DESCRIPTION= DARK SPECTRUM
##BLOCK_ID=2
##ORIGIN= OCEANOPTICS EXPORT
##OWNER= hugo
##SPECTROMETER/DATA SYSTEM= OCEANOPTICS EXPORT
##DATA PROCESSING= DARK:Yes REFERENCE:Yes
##DATA PROCESSING= BOXCAR:0 ELECTRICAL DARK: false
##.ACQUISITION TIME= 400
##.AVERAGES= 5
##XUNITS= NANOMETERS
##YUNITS= Transmission (%)
##XFACTOR= 1.0
##YFACTOR= 1.0
##FIRSTX= 176.36
##LASTX= 893.69
##FIRSTY= 32822.795
##MINY= 1618.305
##MAXY= 32822.795
##NPOINTS= 3648
##XYPOINTS= (XY..XY)
176.36, 32822.795
176.58, 32822.795
176.80, 32822.795
177.02, 1660.083
177.24, 1618.305
177.47, 2590.271
177.69, 2545.216
177.91, 3115.780
178.13, 2739.363
178.35, 2421.109
178.57, 2412.917
178.79, 2719.703
179.01, 2827.016
179.23, 2299.459
179.46, 2435.035
179.68, 2740.182
179.90, 2642.699
180.12, 2274.884
180.34, 2366.633
180.56, 2655.806
180.78, 3012.152
181.00, 2239.659
181.22, 2472.717
181.44, 2668.094
181.66, 2852.001
181.89, 2465.345
182.11, 2300.279
182.33, 2734.857
182.55, 3230.466
182.77, 2450.190
182.99, 2527.193
183.21, 2418.241
183.43, 2731.990
183.65, 2328.131
183.87, 2179.039
184.09, 3027.307
184.31, 2911.802
184.53, 2263.825
184.76, 2292.087
184.98, 2670.551
185.20, 3008.466
185.42, 2478.452
185.64, 2302.736
185.86, 3066.628
186.08, 3378.329
186.30, 2248.670
186.52, 2269.559
186.74, 2889.274
186.96, 2885.178
187.18, 2373.186
187.40, 2285.533
187.62, 3058.027
187.84, 3017.068
188.06, 2396.533
188.28, 2358.850
188.51, 3028.946
188.73, 3092.433
188.95, 2375.234
189.17, 2465.754
189.39, 2894.189
189.61, 2928.186
189.83, 2415.784
190.05, 2412.098
190.27, 3118.647
190.49, 2874.119
190.71, 2281.437
190.93, 2282.666
191.15, 2541.529
191.37, 2888.865
191.59, 2358.850
191.81, 2506.304
192.03, 2830.702
192.25, 2885.588
192.47, 2274.474
192.69, 2358.031
192.91, 2870.023
193.13, 2956.038
193.35, 2235.153
193.57, 2484.186
193.79, 2612.389
194.01, 3042.872
194.23, 2328.131
194.45, 2280.618
194.67, 3026.488
194.89, 2566.514
195.11, 2241.707
195.33, 2186.002
195.55, 2746.736
195.77, 2922.451
195.99, 2391.618
196.21, 2337.961
196.43, 2986.758
196.65, 2664.817
196.87, 2521.869
197.09, 2352.706
197.31, 3054.341
197.53, 3044.920
197.75, 2382.607
197.97, 2393.666
198.19, 3011.743
198.41, 3244.802
198.63, 2312.976
198.85, 2368.681
199.07, 2998.636
199.29, 2602.968
199.51, 2389.160
199.73, 2462.068
199.95, 2665.227
200.17, 2885.588
200.39, 2404.725
200.61, 2441.588
200.83, 2688.573
201.05, 2960.134
201.27, 2284.714
201.49, 2376.053
201.71, 3065.400
201.93, 3002.732
202.15, 2348.611
202.37, 2295.773
202.59, 2896.237
202.81, 2804.488
203.03, 2454.695
203.25, 2462.068
203.47, 2767.625
203.69, 2795.068
203.91, 2413.326
204.13, 2263.825
204.35, 2609.522
204.57, 3086.698
204.79, 2300.278
205.01, 2289.629
205.23, 3082.603
205.45, 2790.562
205.67, 2176.172
205.89, 2322.806
206.10, 3041.643
206.32, 2557.913
206.54, 2253.994
206.76, 2328.540
206.98, 2792.610
207.20, 2682.429
207.42, 2366.633
207.64, 2214.264
207.86, 2633.688
208.08, 3359.078
208.30, 2310.518
208.52, 2276.522
208.74, 3029.355
208.96, 2990.034
209.18, 2201.157
209.40, 2552.998
209.62, 2688.983
209.83, 2813.499
210.05, 2256.452
210.27, 2293.725
210.49, 2817.186
210.71, 2636.555
210.93, 2398.991
211.15, 2388.751
211.37, 2578.802
211.59, 2687.754
211.81, 2234.334
212.03, 2232.286
212.25, 2883.950
212.47, 2755.747
212.68, 2332.227
212.90, 2386.293
213.12, 2822.101
213.34, 3024.031
213.56, 2230.238
213.78, 2317.481
214.00, 3129.706
214.22, 2535.795
214.44, 2356.802
214.66, 2317.891
214.88, 2748.374
215.09, 2850.363
215.31, 2089.747
215.53, 2326.492
215.75, 2944.979
215.97, 2611.979
216.19, 2417.013
216.41, 2503.437
216.63, 2675.876
216.85, 3055.160
217.06, 2428.072
217.28, 2291.677
217.50, 2597.644
217.72, 2992.492
217.94, 2387.522
218.16, 2298.640
218.38, 2578.393
218.60, 2648.843
218.82, 2303.555
219.03, 2369.090
219.25, 2820.872
219.47, 2870.843
219.69, 2290.448
219.91, 2408.002
220.13, 3186.639
220.35, 2862.651
220.57, 2374.415
220.78, 2540.710
221.00, 2903.200
221.22, 2959.724
221.44, 2334.275
221.66, 2255.633
221.88, 3107.178
222.10, 2531.699
222.31, 2214.264
222.53, 2202.795
222.75, 2578.802
222.97, 2652.120
223.19, 2335.094
223.41, 2356.802
223.63, 2678.334
223.84, 3245.211
224.06, 2344.515
224.28, 2341.647
224.50, 2958.086
224.72, 2718.064
224.94, 2272.017
225.16, 2375.234
225.37, 3219.407
225.59, 2796.706
225.81, 2346.563
226.03, 2408.002
226.25, 3062.942
226.47, 2697.994
226.68, 2318.301
226.90, 2359.670
227.12, 2702.090
227.34, 3017.887
227.56, 2258.090
227.78, 2299.869
227.99, 2743.869
228.21, 2811.042
228.43, 2435.854
228.65, 2390.389
228.87, 2848.315
229.09, 2675.057
229.30, 2405.134
229.52, 2218.360
229.74, 2836.027
229.96, 3017.887
230.18, 2323.216
230.39, 2320.349
230.61, 2864.699
230.83, 2745.917
231.05, 2262.596
231.27, 2412.917
231.49, 2626.315
231.70, 3060.894
231.92, 2339.600
232.14, 2296.592
232.36, 2666.046
232.58, 2978.156
232.79, 2233.515
233.01, 2268.740
233.23, 2831.522
233.45, 2720.522
233.67, 2289.219
233.88, 2324.035
234.10, 3145.270
234.32, 3032.632
234.54, 2333.456
234.75, 2312.157
234.97, 2882.311
235.19, 3085.879
235.41, 2317.891
235.63, 2339.190
235.84, 3135.440
236.06, 2568.153
236.28, 2295.363
236.50, 2226.961
236.72, 2532.928
236.93, 2647.204
237.15, 2310.109
237.37, 2303.965
237.59, 2853.640
237.80, 2651.710
238.02, 2302.736
238.24, 2259.319
238.46, 2984.300
238.67, 3128.477
238.89, 2401.039
239.11, 2426.843
239.33, 2637.374
239.55, 2705.776
239.76, 2401.448
239.98, 2210.577
240.20, 2828.245
240.42, 2716.016
240.63, 2368.271
240.85, 2356.393
241.07, 2880.263
241.29, 2991.673
241.50, 2289.629
241.72, 2379.330
241.94, 2752.880
242.16, 3178.448
242.37, 2333.456
242.59, 2340.009
242.81, 2438.312
243.03, 2961.772
243.24, 2260.548
243.46, 2428.072
243.68, 2979.795
243.90, 2595.596
244.11, 2261.367
244.33, 2279.389
244.55, 2722.570
244.76, 2693.079
244.98, 2399.400
245.20, 2279.389
245.42, 2870.023
245.63, 2693.488
245.85, 2209.349
246.07, 2269.149
246.29, 2876.167
246.50, 2871.252
246.72, 2365.814
246.94, 2410.869
247.15, 2759.024
247.37, 3076.868
247.59, 2229.828
247.81, 2445.275
248.02, 2767.625
248.24, 2944.569
248.46, 2290.039
248.67, 2269.149
248.89, 2925.319
249.11, 2949.894
249.33, 2451.828
249.54, 2274.474
249.76, 2709.053
249.98, 2551.769
250.19, 2266.692
250.41, 2285.124
250.63, 2856.097
250.84, 2627.134
251.06, 2338.371
251.28, 2402.677
251.50, 2524.326
251.71, 2790.153
251.93, 2286.762
252.15, 2281.847
252.36, 2683.249
252.58, 3211.215
252.80, 2352.297
253.01, 2528.422
253.23, 2962.592
253.45, 2709.463
253.66, 2333.865
253.88, 2366.223
254.10, 2670.551
254.31, 2930.643
254.53, 2219.179
254.75, 2404.725
254.97, 3116.189
255.18, 2800.392
255.40, 2363.356
255.62, 2303.146
255.83, 2654.577
256.05, 2885.998
256.27, 2361.308
256.48, 2401.448
256.70, 2892.141
256.92, 2896.237
257.13, 2461.249
257.35, 2244.983
257.57, 3061.304
257.78, 2843.400
258.00, 2491.968
258.21, 2491.149
258.43, 3006.418
258.65, 2853.230
258.86, 2324.854
259.08, 2342.876
259.30, 2985.119
259.51, 3089.566
259.73, 2207.710
259.95, 2400.219
260.16, 2986.348
260.38, 3149.776
260.60, 2216.721
260.81, 2308.061
261.03, 2858.964
261.25, 2564.057
261.46, 2320.349
261.68, 2257.681
261.89, 2676.695
262.11, 2729.123
262.33, 2332.636
262.54, 2120.876
262.76, 2881.902
262.98, 2861.422
263.19, 2260.548
263.41, 2313.386
263.62, 2735.677
263.84, 2811.042
264.06, 2342.876
264.27, 2332.636
264.49, 2781.142
264.71, 2775.407
264.92, 2387.932
265.14, 2417.422
265.35, 2867.975
265.57, 2842.171
265.79, 2335.504
266.00, 2373.596
266.22, 3070.315
266.43, 2551.769
266.65, 2389.980
266.87, 2173.304
267.08, 2438.312
267.30, 2498.112
267.51, 2445.684
267.73, 2321.987
267.95, 3109.636
268.16, 2634.507
268.38, 2345.334
268.59, 2409.230
268.81, 2845.038
269.03, 2990.854
269.24, 2267.511
269.46, 2378.920
269.67, 2765.577
269.89, 2672.190
270.11, 2355.574
270.32, 2387.932
270.54, 2745.097
270.75, 3212.034
270.97, 2234.334
271.19, 2255.223
271.40, 2716.016
271.62, 2566.105
271.83, 2233.105
272.05, 2196.651
272.26, 2834.798
272.48, 2877.396
272.70, 2481.319
272.91, 2402.677
273.13, 2870.433
273.34, 2890.913
273.56, 2428.481
273.77, 2419.880
273.99, 3146.909
274.21, 3206.300
274.42, 2573.887
274.64, 2437.083
274.85, 2800.392
275.07, 2680.791
275.28, 2423.157
275.50, 2541.939
275.71, 2601.740
275.93, 2577.573
276.15, 2533.337
276.36, 2453.057
276.58, 2957.267
276.79, 2703.319
277.01, 2514.086
277.22, 2547.673
277.44, 3310.337
277.65, 2939.245
277.87, 2473.946
278.08, 2410.050
278.30, 3268.558
278.52, 2793.020
278.73, 2541.120
278.95, 2334.275
279.16, 2589.861
279.38, 2854.049
279.59, 2602.559
279.81, 2332.636
280.02, 3006.828
280.24, 3084.651
280.45, 2524.736
280.67, 2351.887
280.88, 2855.688
281.10, 3037.138
281.31, 2528.422
281.53, 2467.393
281.74, 2907.296
281.96, 2651.300
282.17, 2434.625
282.39, 2401.039
282.60, 2614.846
282.82, 2771.721
283.04, 2435.035
283.25, 2451.828
283.47, 2817.186
283.68, 2874.119
283.90, 2516.954
284.11, 2378.920
284.33, 2595.186
284.54, 2701.680
284.76, 2406.363
284.97, 2544.396
285.19, 2723.798
285.40, 2949.894
285.62, 2573.887
285.83, 2381.788
286.05, 2853.640
286.26, 2752.880
286.48, 2497.703
286.69, 2481.319
286.91, 2605.426
287.12, 3107.997
287.33, 2330.998
287.55, 2366.633
287.76, 2959.724
287.98, 2945.798
288.19, 2729.533
288.41, 2251.946
288.62, 2770.902
288.84, 2829.883
289.05, 2266.282
289.27, 2294.544
289.48, 2965.049
289.70, 2568.153
289.91, 2487.463
290.13, 2446.503
290.34, 2854.459
290.56, 2797.525
290.77, 2446.913
290.99, 2419.880
291.20, 2658.673
291.41, 2682.839
291.63, 2389.160
291.84, 2561.599
292.06, 2887.636
292.27, 2731.581
292.49, 2389.980
292.70, 2627.954
292.92, 2858.555
293.13, 2940.474
293.35, 2443.636
293.56, 2398.581
293.77, 2600.920
293.99, 3007.647
294.20, 2377.282
294.42, 2441.998
294.63, 2933.920
294.85, 2971.193
295.06, 2329.769
295.28, 2384.655
295.49, 2468.212
295.70, 3025.669
295.92, 2395.714
296.13, 2584.946
296.35, 3037.957
296.56, 2750.012
296.78, 2303.965
296.99, 2390.389
297.20, 2714.787
297.42, 2935.558
297.63, 2491.149
297.85, 2393.666
298.06, 2679.972
298.28, 2842.171
298.49, 2340.828
298.70, 2406.363
298.92, 3041.234
299.13, 2968.326
299.35, 2535.795
299.56, 2411.688
299.77, 2496.474
299.99, 2708.234
300.20, 2546.035
300.42, 2358.850
300.63, 2843.809
300.85, 3020.754
301.06, 2564.057
301.27, 2468.622
301.49, 2751.241
301.70, 2914.260
301.92, 2448.551
302.13, 2458.382
302.34, 2709.463
302.56, 3054.341
302.77, 2439.950
302.99, 2476.404
303.20, 2773.359
303.41, 2775.407
303.63, 2452.238
303.84, 2375.234
304.05, 2587.404
304.27, 2780.322
304.48, 2527.603
304.70, 2328.131
304.91, 2943.341
305.12, 2808.994
305.34, 2317.891
305.55, 2385.474
305.77, 2534.976
305.98, 2852.001
306.19, 2423.566
306.41, 2517.363
306.62, 2625.086
306.83, 2915.079
307.05, 2475.585
307.26, 2395.714
307.47, 2999.455
307.69, 3035.909
307.90, 2407.182
308.12, 2425.205
308.33, 2761.481
308.54, 3030.175
308.76, 2247.441
308.97, 2442.817
309.18, 2871.252
309.40, 2643.928
309.61, 2512.448
309.82, 2367.042
310.04, 2730.352
310.25, 2983.071
310.46, 2312.976
310.68, 2396.943
310.89, 2811.042
311.11, 2552.179
311.32, 2435.035
311.53, 2372.777
311.75, 2879.444
311.96, 2876.577
312.17, 2496.884
312.39, 2464.935
312.60, 2837.256
312.81, 2952.761
313.03, 2450.190
313.24, 2389.570
313.45, 2711.511
313.67, 2856.507
313.88, 2508.762
314.09, 2419.061
314.31, 2748.374
314.52, 2778.274
314.73, 2450.599
314.95, 2356.802
315.16, 3125.610
315.37, 2957.676
315.58, 2403.906
315.80, 2266.282
316.01, 2593.957
316.22, 2802.850
316.44, 2438.312
316.65, 2574.706
316.86, 2755.747
317.08, 2833.570
317.29, 2515.725
317.50, 2355.574
317.72, 2636.965
317.93, 2993.311
318.14, 2423.566
318.35, 2616.075
318.57, 2716.835
318.78, 3022.802
318.99, 2472.717
319.21, 2287.991
319.42, 2991.673
319.63, 2697.584
319.85, 2290.448
320.06, 2445.684
320.27, 2749.193
320.48, 2454.695
320.70, 2371.138
320.91, 2435.854
321.12, 2838.894
321.34, 2779.503
321.55, 2417.013
321.76, 2423.976
321.97, 2888.455
322.19, 2660.721
322.40, 2512.448
322.61, 2525.555
322.83, 2818.415
323.04, 2718.474
323.25, 2433.806
323.46, 2458.382
323.68, 2862.651
323.89, 2586.585
324.10, 2364.175
324.31, 2495.655
324.53, 2734.857
324.74, 3005.189
324.95, 2419.061
325.16, 2621.810
325.38, 2847.905
325.59, 2870.023
325.80, 2466.574
326.01, 2421.109
326.23, 2987.577
326.44, 2897.466
326.65, 2411.688
326.86, 2592.319
327.08, 2841.352
327.29, 2782.370
327.50, 2415.374
327.71, 2594.367
327.93, 2413.736
328.14, 2606.245
328.35, 2347.382
328.56, 2515.315
328.78, 2847.086
328.99, 3175.171
329.20, 2400.629
329.41, 2499.341
329.63, 2791.791
329.84, 2703.319
330.05, 2428.072
330.26, 2414.555
330.48, 2431.348
330.69, 2649.662
330.90, 2417.832
331.11, 2310.928
331.32, 2605.426
331.54, 2904.020
331.75, 2394.895
331.96, 2429.301
332.17, 3045.739
332.39, 2514.086
332.60, 2335.913
332.81, 2307.242
333.02, 2604.607
333.23, 2478.452
333.45, 2448.961
333.66, 2525.965
333.87, 2722.979
334.08, 2642.699
334.29, 2441.998
334.51, 2491.149
334.72, 2856.097
334.93, 2774.588
335.14, 2509.171
335.35, 2444.865
335.57, 2551.769
335.78, 2763.529
335.99, 2349.020
336.20, 2253.585
336.41, 2628.363
336.63, 2931.872
336.84, 2291.267
337.05, 2597.644
337.26, 2963.820
337.47, 2564.466
337.69, 2476.813
337.90, 2373.596
338.11, 2866.337
338.32, 3135.850
338.53, 2299.869
338.74, 2378.101
338.96, 2929.824
339.17, 3162.883
339.38, 2762.710
339.59, 2503.437
339.80, 2814.319
340.01, 2973.241
340.23, 2521.869
340.44, 2297.002
340.65, 2865.927
340.86, 2808.994
341.07, 2359.670
341.28, 2500.160
341.50, 2905.658
341.71, 2579.212
341.92, 2507.123
342.13, 2342.057
342.34, 2586.994
342.55, 2581.260
342.77, 2391.618
342.98, 2327.312
343.19, 2786.057
343.40, 2847.496
343.61, 2358.031
343.82, 2602.968
344.03, 2476.813
344.25, 3012.562
344.46, 2381.378
344.67, 2546.035
344.88, 2732.400
345.09, 2835.208
345.30, 2405.954
345.51, 2573.887
345.73, 2829.883
345.94, 2815.957
346.15, 2541.529
346.36, 2602.968
346.57, 2857.326
346.78, 2585.765
346.99, 2403.087
347.21, 2597.234
347.42, 2826.606
347.63, 2700.452
347.84, 2516.954
348.05, 2475.585
348.26, 2727.894
348.47, 2488.692
348.68, 2328.950
348.89, 2496.474
349.11, 2826.197
349.32, 2906.887
349.53, 2278.980
349.74, 2598.872
349.95, 2459.201
350.16, 2881.902
350.37, 2235.563
350.58, 2442.817
350.79, 2854.868
351.01, 2897.876
351.22, 2533.747
351.43, 2447.732
351.64, 2840.533
351.85, 2812.680
352.06, 2430.120
352.27, 2406.773
352.48, 2675.466
352.69, 3008.466
352.90, 2523.917
353.12, 2532.518
353.33, 2795.068
353.54, 2639.832
353.75, 2464.935
353.96, 2418.242
354.17, 2684.477
354.38, 2809.813
354.59, 2523.507
354.80, 2487.872
355.01, 2623.858
355.22, 2729.942
355.43, 2358.850
355.64, 2556.684
355.86, 2923.680
356.07, 2985.119
356.28, 2401.039
356.49, 2233.105
356.70, 2721.341
356.91, 3142.403
357.12, 2482.138
357.33, 2480.909
357.54, 2823.739
357.75, 2761.481
357.96, 2297.821
358.17, 2469.850
358.38, 2672.599
358.59, 2805.717
358.80, 2350.249
359.02, 2511.219
359.23, 2514.086
359.44, 2959.724
359.65, 2222.456
359.86, 2492.378
360.07, 2695.946
360.28, 2498.522
360.49, 2369.500
360.70, 2498.931
360.91, 2503.027
361.12, 2753.699
361.33, 2480.500
361.54, 2495.245
361.75, 2904.020
361.96, 2697.584
362.17, 2522.278
362.38, 2476.404
362.59, 2892.551
362.80, 2989.625
363.01, 2393.256
363.22, 2432.577
363.43, 2563.647
363.64, 2920.403
363.85, 2360.898
364.06, 2456.743
364.27, 2647.614
364.48, 2812.271
364.69, 2280.618
364.90, 2410.869
365.11, 2727.075
365.33, 2808.584
365.54, 2359.670
365.75, 2626.725
365.96, 2942.931
366.17, 2702.090
366.38, 2381.378
366.59, 2488.692
366.80, 2503.847
367.01, 2990.854
367.22, 2316.662
367.43, 2434.625
367.64, 2788.514
367.85, 2820.463
368.06, 2312.157
368.27, 2428.481
368.48, 2994.540
368.69, 2469.850
368.90, 2488.692
369.11, 2361.718
369.32, 2855.688
369.53, 2803.669
369.74, 2395.304
369.94, 2445.275
370.15, 2707.005
370.36, 2927.776
370.57, 2408.821
370.78, 2475.994
370.99, 2686.935
371.20, 2961.363
371.41, 2449.780
371.62, 2600.920
371.83, 2630.001
372.04, 2726.666
372.25, 2380.559
372.46, 2497.703
372.67, 2700.861
372.88, 3087.518
373.09, 2294.954
373.30, 2461.658
373.51, 2720.931
373.72, 2790.562
373.93, 2518.592
374.14, 2336.323
374.35, 2803.669
374.56, 3058.437
374.77, 2567.743
374.98, 2216.312
375.19, 2962.182
375.40, 2925.319
375.61, 2339.190
375.82, 2577.983
376.03, 2806.946
376.23, 2904.020
376.44, 2381.788
376.65, 2497.703
376.86, 2586.175
377.07, 2926.138
377.28, 2531.289
377.49, 2317.481
377.70, 3010.104
377.91, 2728.714
378.12, 2354.345
378.33, 2367.452
378.54, 2513.267
378.75, 3066.628
378.96, 2358.031
379.17, 2374.825
379.37, 2742.230
379.58, 2645.156
379.79, 2283.076
380.00, 2401.039
380.21, 2597.644
380.42, 2889.684
380.63, 2391.618
380.84, 2369.909
381.05, 2732.810
381.26, 2967.916
381.47, 2481.729
381.68, 2557.503
381.89, 2886.407
382.09, 2750.012
382.30, 2615.256
382.51, 2518.182
382.72, 2940.883
382.93, 2622.219
383.14, 2337.552
383.35, 2508.352
383.56, 2756.566
383.77, 2739.773
383.98, 2417.832
384.18, 2489.101
384.39, 2899.105
384.60, 2822.920
384.81, 2274.884
385.02, 2356.393
385.23, 2635.736
385.44, 2711.511
385.65, 2320.349
385.86, 2484.596
386.06, 2693.489
386.27, 3018.706
386.48, 2466.983
386.69, 2563.238
386.90, 2567.743
387.11, 2654.987
387.32, 2401.039
387.53, 2414.146
387.73, 2646.795
387.94, 3010.514
388.15, 2510.810
388.36, 2471.489
388.57, 3096.119
388.78, 2912.212
388.99, 2534.976
389.20, 2284.714
389.40, 3544.624
389.61, 2637.784
389.82, 2384.245
390.03, 2274.064
390.24, 2858.964
390.45, 2763.119
390.66, 2483.367
390.86, 2387.112
391.07, 2529.651
391.28, 2541.939
391.49, 2294.954
391.70, 2319.529
391.91, 2562.418
392.12, 3188.278
392.32, 2319.939
392.53, 2408.002
392.74, 2743.459
392.95, 2854.868
393.16, 2288.400
393.37, 2394.075
393.57, 2796.706
393.78, 2499.751
393.99, 2459.610
394.20, 2455.105
394.41, 2839.713
394.62, 2737.725
394.82, 2437.083
395.03, 2342.467
395.24, 2755.747
395.45, 2722.570
395.66, 2394.895
395.87, 2489.511
396.07, 3008.466
396.28, 2822.920
396.49, 2421.109
396.70, 2340.009
396.91, 2630.821
397.11, 2800.392
397.32, 2252.356
397.53, 2303.965
397.74, 2617.714
397.95, 2744.688
398.16, 2423.976
398.36, 2615.256
398.57, 2729.123
398.78, 2652.529
398.99, 2531.699
399.20, 2293.315
399.40, 2450.599
399.61, 2921.632
399.82, 2403.087
400.03, 2348.201
400.24, 3010.924
400.44, 2527.603
400.65, 2464.935
400.86, 2444.046
401.07, 2562.828
401.27, 2855.688
401.48, 2467.802
401.69, 2354.754
401.90, 2901.153
402.11, 2687.754
402.31, 2375.644
402.52, 2519.002
402.73, 2520.230
402.94, 2613.618
403.15, 2462.478
403.35, 2319.529
403.56, 3026.898
403.77, 2630.821
403.98, 2511.219
404.18, 2313.386
404.39, 2817.186
404.60, 2639.013
404.81, 2543.168
405.01, 2324.854
405.22, 2573.478
405.43, 2888.046
405.64, 2433.396
405.85, 2497.703
406.05, 2988.396
406.26, 2898.285
406.47, 2596.824
406.68, 2462.068
406.88, 3111.274
407.09, 2696.356
407.30, 2328.950
407.51, 2275.293
407.71, 2903.610
407.92, 2569.791
408.13, 2247.031
408.34, 2433.806
408.54, 2488.282
408.75, 2463.297
408.96, 2475.175
409.16, 2487.463
409.37, 2600.920
409.58, 2958.086
409.79, 2517.363
409.99, 2435.035
410.20, 3019.116
410.41, 2654.168
410.62, 2445.684
410.82, 2386.293
411.03, 2951.123
411.24, 2621.400
411.45, 2423.157
411.65, 2462.068
411.86, 2731.581
412.07, 2616.485
412.27, 2546.854
412.48, 2458.382
412.69, 2716.426
412.90, 2969.145
413.10, 2464.116
413.31, 2417.832
413.52, 2736.496
413.72, 2471.898
413.93, 2293.725
414.14, 2287.581
414.35, 2796.297
414.55, 2829.474
414.76, 2403.496
414.97, 2316.662
415.17, 2645.976
415.38, 2955.219
415.59, 2439.540
415.79, 2305.194
416.00, 3072.772
416.21, 3010.514
416.41, 2300.278
416.62, 2285.124
416.83, 2967.507
417.04, 2982.252
417.24, 2406.363
417.45, 2525.145
417.66, 2904.839
417.86, 2588.223
418.07, 2392.847
418.28, 2430.939
418.48, 3067.038
418.69, 2654.168
418.90, 2539.481
419.10, 2410.459
419.31, 2665.227
419.52, 2536.204
419.72, 2405.134
419.93, 2327.721
420.14, 2882.311
420.34, 2929.005
420.55, 2407.182
420.76, 2630.001
420.96, 2568.972
421.17, 2732.810
421.38, 2417.013
421.58, 2477.633
421.79, 2939.654
422.00, 2737.315
422.20, 2437.492
422.41, 2321.577
422.62, 2523.917
422.82, 2942.522
423.03, 2538.252
423.24, 2553.407
423.44, 2445.275
423.65, 2767.215
423.85, 2340.419
424.06, 2600.511
424.27, 2939.245
424.47, 2799.573
424.68, 2856.507
424.89, 2659.492
425.09, 2945.798
425.30, 2842.581
425.51, 2375.644
425.71, 2471.898
425.92, 2849.544
426.12, 3146.499
426.33, 2369.090
426.54, 2245.803
426.74, 2813.909
426.95, 2692.260
427.16, 2355.983
427.36, 2308.470
427.57, 2770.902
427.77, 2883.540
427.98, 2595.596
428.19, 2450.190
428.39, 2577.983
428.60, 2922.861
428.81, 2364.175
429.01, 2442.408
429.22, 2818.824
429.42, 2681.610
429.63, 2598.872
429.84, 2576.345
430.04, 2512.038
430.25, 2976.108
430.45, 2376.463
430.66, 2349.430
430.87, 2530.880
431.07, 2658.263
431.28, 2439.540
431.48, 2298.640
431.69, 2720.931
431.90, 2647.204
432.10, 2543.987
432.31, 2356.802
432.51, 2641.470
432.72, 2901.972
432.92, 2344.105
433.13, 2494.836
433.34, 2882.721
433.54, 2859.784
433.75, 2478.861
433.95, 2571.430
434.16, 2963.001
434.37, 2600.101
434.57, 2511.219
434.78, 2478.042
434.98, 2558.732
435.19, 2712.739
435.39, 2394.485
435.60, 2443.636
435.81, 2920.813
436.01, 2496.474
436.22, 2471.489
436.42, 2457.153
436.63, 2641.061
436.83, 2890.913
437.04, 2449.371
437.24, 2455.924
437.45, 2654.577
437.66, 2755.747
437.86, 2385.064
438.07, 2340.419
438.27, 2757.385
438.48, 2809.813
438.68, 2500.160
438.89, 2460.020
439.09, 2865.108
439.30, 2616.075
439.50, 2483.776
439.71, 2440.360
439.92, 2741.411
440.12, 2636.965
440.33, 2352.297
440.53, 2534.157
440.74, 2573.068
440.94, 2793.020
441.15, 2629.592
441.35, 2399.400
441.56, 2779.094
441.76, 2781.961
441.97, 2384.245
442.17, 2469.031
442.38, 2750.012
442.58, 2848.315
442.79, 2420.289
443.00, 2471.079
443.20, 2654.168
443.41, 2719.293
443.61, 2341.647
443.82, 2521.459
444.02, 2652.939
444.23, 2390.389
444.43, 2547.673
444.64, 2571.430
444.84, 2918.355
445.05, 2588.633
445.25, 2523.917
445.46, 2407.592
445.66, 2581.669
445.87, 2651.710
446.07, 2404.725
446.28, 2509.171
446.48, 2759.843
446.69, 2579.212
446.89, 2466.574
447.10, 2509.581
447.30, 2908.935
447.51, 2779.913
447.71, 2627.544
447.92, 2445.275
448.12, 2709.463
448.33, 2772.540
448.53, 2364.994
448.73, 2545.625
448.94, 3096.119
449.14, 2656.215
449.35, 2488.692
449.55, 2463.297
449.76, 2931.872
449.96, 3029.765
450.17, 2481.319
450.37, 2432.168
450.58, 3100.625
450.78, 2555.455
450.99, 2328.131
451.19, 2615.256
451.40, 2608.703
451.60, 2615.256
451.81, 2346.972
452.01, 2418.242
452.21, 2873.710
452.42, 2688.573
452.62, 2419.470
452.83, 2472.717
453.03, 2856.097
453.24, 2782.780
453.44, 2610.751
453.65, 2403.087
453.85, 3221.455
454.06, 2820.872
454.26, 2482.548
454.46, 2568.562
454.67, 2935.149
454.87, 2756.976
455.08, 2605.426
455.28, 2574.297
455.49, 2720.112
455.69, 3252.994
455.89, 2559.961
456.10, 2313.795
456.30, 3101.853
456.51, 2821.282
456.71, 2430.529
456.92, 2500.979
457.12, 2904.839
457.32, 2645.976
457.53, 2641.060
457.73, 2558.323
457.94, 2990.444
458.14, 2605.426
458.35, 2321.577
458.55, 2403.496
458.75, 3006.828
458.96, 3023.211
459.16, 2203.614
459.37, 2472.717
459.57, 2484.596
459.77, 2935.558
459.98, 2448.961
460.18, 2497.293
460.39, 2949.485
460.59, 2581.260
460.79, 2236.791
461.00, 2401.858
461.20, 2811.042
461.41, 2986.758
461.61, 2371.138
461.81, 2544.396
462.02, 2704.957
462.22, 3000.684
462.43, 2460.430
462.63, 2353.526
462.83, 2987.167
463.04, 2874.529
463.24, 2405.544
463.45, 2385.474
463.65, 2624.267
463.85, 2855.278
464.06, 2303.555
464.26, 2720.522
464.46, 2693.898
464.67, 2920.403
464.87, 2444.046
465.08, 2426.843
465.28, 2825.787
465.48, 2712.330
465.69, 2380.968
465.89, 2456.334
466.09, 3147.728
466.30, 2978.566
466.50, 2425.205
466.71, 2419.061
466.91, 2958.086
467.11, 2924.909
467.32, 2507.943
467.52, 2469.850
467.72, 2666.046
467.93, 2594.367
468.13, 2528.013
468.33, 2323.216
468.54, 2799.164
468.74, 3164.931
468.94, 2611.979
469.15, 2542.348
469.35, 2605.016
469.55, 2685.297
469.76, 2482.138
469.96, 2454.286
470.17, 2864.699
470.37, 3105.540
470.57, 2429.710
470.78, 2440.360
470.98, 2900.333
471.18, 2917.536
471.39, 2475.994
471.59, 2638.603
471.79, 2651.710
471.99, 2521.459
472.20, 2443.227
472.40, 2407.182
472.60, 2557.094
472.81, 2652.529
473.01, 2509.581
473.21, 2504.256
473.42, 3123.152
473.62, 3021.164
473.82, 2469.850
474.03, 2797.525
474.23, 2619.762
474.43, 2908.116
474.64, 2291.267
474.84, 2543.577
475.04, 2763.529
475.25, 2822.511
475.45, 2378.920
475.65, 2482.548
475.85, 2499.341
476.06, 2917.127
476.26, 2560.780
476.46, 2460.430
476.67, 2680.791
476.87, 2761.481
477.07, 2362.127
477.28, 2486.644
477.48, 2870.433
477.68, 3020.344
477.88, 2239.249
478.09, 2455.924
478.29, 2682.839
478.49, 2979.795
478.70, 2340.828
478.90, 2576.345
479.10, 2647.204
479.30, 2969.555
479.51, 2415.784
479.71, 2317.072
479.91, 2857.326
480.11, 2895.418
480.32, 2562.828
480.52, 2574.706
480.72, 2722.570
480.93, 2611.160
481.13, 2193.784
481.33, 2398.581
481.53, 3005.189
481.74, 2807.356
481.94, 2340.009
482.14, 2482.138
482.34, 2740.592
482.55, 2799.164
482.75, 2565.286
482.95, 2379.330
483.15, 2822.511
483.36, 2489.101
483.56, 2607.064
483.76, 2383.426
483.96, 2748.784
484.17, 2900.333
484.37, 2430.529
484.57, 2483.367
484.77, 2754.928
484.98, 3062.942
485.18, 2469.441
485.38, 2504.256
485.58, 2706.186
485.79, 2862.241
485.99, 2253.994
486.19, 2533.337
486.39, 3059.256
486.59, 2494.016
486.80, 2532.928
487.00, 2461.249
487.20, 2863.470
487.40, 2774.178
487.61, 2503.027
487.81, 2383.836
488.01, 2964.230
488.21, 2760.252
488.41, 2588.223
488.62, 2579.621
488.82, 2634.507
489.02, 2651.710
489.22, 2459.201
489.43, 2479.271
489.63, 3017.068
489.83, 2652.529
490.03, 2381.788
490.23, 2313.386
490.44, 2514.086
490.64, 2809.404
490.84, 2473.127
491.04, 2494.426
491.24, 2691.850
491.45, 3065.809
491.65, 2630.821
491.85, 2487.053
492.05, 3329.588
492.25, 2850.772
492.45, 2568.153
492.66, 2413.736
492.86, 2648.433
493.06, 2835.208
493.26, 2605.426
493.46, 2486.234
493.67, 3278.388
493.87, 2507.943
494.07, 2626.725
494.27, 2386.293
494.47, 2549.721
494.67, 2818.005
494.88, 2491.968
495.08, 2485.005
495.28, 2731.581
495.48, 2715.607
495.68, 2421.518
495.89, 2411.278
496.09, 2496.474
496.29, 2770.492
496.49, 2637.784
496.69, 2499.751
496.89, 2460.430
497.09, 2802.850
497.30, 2474.765
497.50, 2441.179
497.70, 2827.426
497.90, 3139.126
498.10, 2549.312
498.30, 2874.529
498.51, 2782.370
498.71, 2711.101
498.91, 2256.862
499.11, 2534.976
499.31, 2932.282
499.51, 2897.466
499.71, 2400.629
499.92, 2446.094
500.12, 2813.909
500.32, 2754.108
500.52, 2616.075
500.72, 2276.932
500.92, 3043.691
501.12, 2870.433
501.32, 2207.710
501.53, 2427.662
501.73, 2892.141
501.93, 2822.101
502.13, 2272.426
502.33, 2219.589
502.53, 2697.994
502.73, 2835.208
502.93, 2257.271
503.14, 2507.123
503.34, 2644.337
503.54, 2735.677
503.74, 2451.828
503.94, 2376.053
504.14, 2871.252
504.34, 2832.341
504.54, 2428.072
504.74, 2405.954
504.95, 2845.857
505.15, 3029.765
505.35, 2386.293
505.55, 2376.463
505.75, 2794.249
505.95, 2818.415
506.15, 2532.928
506.35, 2457.972
506.55, 2723.798
506.75, 2819.234
506.95, 2446.503
507.16, 2552.998
507.36, 2898.285
507.56, 2964.640
507.76, 2438.312
507.96, 2576.345
508.16, 2552.998
508.36, 2792.201
508.56, 2521.050
508.76, 2474.765
508.96, 2779.913
509.16, 3176.809
509.36, 2403.087
509.57, 2571.020
509.77, 2704.548
509.97, 2657.854
510.17, 2491.968
510.37, 2473.127
510.57, 2591.909
510.77, 2578.802
510.97, 2463.706
511.17, 2412.098
511.37, 2951.533
511.57, 2878.215
511.77, 2423.566
511.97, 2396.943
512.17, 2976.518
512.37, 2987.986
512.57, 2388.751
512.78, 2459.201
512.98, 2660.721
513.18, 2480.500
513.38, 2434.216
513.58, 2469.850
513.78, 2913.850
513.98, 2761.891
514.18, 2632.869
514.38, 2286.762
514.58, 2256.862
514.78, 2595.596
514.98, 2510.810
515.18, 2537.024
515.38, 2684.887
515.58, 2600.920
515.78, 2377.282
515.98, 2536.614
516.18, 2856.097
516.38, 2978.156
516.58, 2436.673
516.78, 2287.172
516.98, 2512.038
517.18, 2762.710
517.38, 2449.780
517.58, 2464.526
517.78, 2628.773
517.98, 2937.606
518.18, 2465.754
518.38, 2423.157
518.58, 3074.411
518.78, 2690.621
518.98, 2545.216
519.18, 2432.577
519.38, 2769.673
519.58, 2685.297
519.78, 2423.566
519.98, 2546.035
520.18, 2695.946
520.38, 2726.256
520.58, 2523.917
520.78, 2455.515
520.98, 2732.400
521.18, 2865.518
521.38, 2514.906
521.58, 2507.533
521.78, 2925.728
521.98, 2760.252
522.18, 2452.238
522.38, 2627.134
522.58, 2392.847
522.78, 2769.673
522.98, 2637.374
523.18, 2393.666
523.38, 2683.658
523.58, 2629.592
523.78, 2342.057
523.98, 2441.588
524.18, 2729.942
524.38, 2714.787
524.58, 2400.629
524.78, 2477.223
524.98, 2742.640
525.18, 2705.367
525.38, 2540.710
525.58, 2598.463
525.78, 2836.846
525.98, 2818.005
526.18, 2423.157
526.38, 2414.965
526.58, 2742.230
526.78, 2586.994
526.98, 2666.865
527.17, 2258.910
527.37, 2636.145
527.57, 2619.352
527.77, 2342.876
527.97, 2455.105
528.17, 2482.138
528.37, 2793.839
528.57, 2469.031
528.77, 2440.769
528.97, 3059.256
529.17, 2853.640
529.37, 2493.607
529.57, 2514.496
529.77, 2643.108
529.97, 2963.820
530.17, 2636.555
530.36, 2527.603
530.56, 2864.699
530.76, 2580.031
530.96, 2608.293
531.16, 2390.389
531.36, 2899.514
531.56, 2975.699
531.76, 2378.101
531.96, 2379.330
532.16, 2713.968
532.36, 2686.935
532.56, 2385.064
532.76, 2506.304
532.95, 2686.935
533.15, 2739.363
533.35, 2539.481
533.55, 2442.408
533.75, 2943.750
533.95, 2772.130
534.15, 2426.433
534.35, 2575.116
534.55, 2799.164
534.75, 2699.223
534.94, 2356.393
535.14, 2453.467
535.34, 2734.857
535.54, 2694.308
535.74, 2617.304
535.94, 2371.138
536.14, 2663.179
536.34, 3180.495
536.54, 2638.603
536.73, 2470.669
536.93, 2802.850
537.13, 3076.459
537.33, 2675.466
537.53, 2448.551
537.73, 2642.699
537.93, 2640.651
538.13, 2706.596
538.32, 2596.005
538.52, 2525.145
538.72, 2612.389
538.92, 2629.592
539.12, 2408.411
539.32, 2976.518
539.52, 2885.998
539.72, 2494.836
539.91, 2324.035
540.11, 2641.470
540.31, 2728.304
540.51, 2374.825
540.71, 2627.134
540.91, 3109.226
541.11, 2579.212
541.30, 2384.245
541.50, 2265.053
541.70, 2548.492
541.90, 2715.197
542.10, 2290.039
542.30, 2398.171
542.49, 2836.846
542.69, 2721.750
542.89, 2300.688
543.09, 2406.773
543.29, 2990.854
543.49, 3012.152
543.68, 2589.042
543.88, 2511.629
544.08, 2873.300
544.28, 2757.795
544.48, 2640.241
544.68, 2413.736
544.87, 2908.116
545.07, 2834.389
545.27, 2443.227
545.47, 2426.433
545.67, 2685.297
545.87, 2709.053
546.06, 2369.500
546.26, 2361.308
546.46, 2658.263
546.66, 2703.728
546.86, 2915.488
547.05, 2354.345
547.25, 2970.783
547.45, 3170.665
547.65, 2419.061
547.85, 2263.825
548.04, 3008.056
548.24, 2964.230
548.44, 2496.064
548.64, 2569.791
548.84, 3063.761
549.03, 2574.297
549.23, 2405.544
549.43, 2491.149
549.63, 2658.263
549.83, 2815.957
550.02, 2462.068
550.22, 2460.430
550.42, 2749.193
550.62, 2891.732
550.82, 2276.112
551.01, 2485.005
551.21, 2729.533
551.41, 3135.850
551.61, 2363.766
551.80, 2503.027
552.00, 2711.101
552.20, 2860.603
552.40, 2338.780
552.60, 2496.884
552.79, 2906.068
552.99, 2774.178
553.19, 2597.644
553.39, 2338.371
553.58, 2790.562
553.78, 2474.765
553.98, 2650.072
554.18, 2336.732
554.37, 2455.515
554.57, 2788.105
554.77, 2568.153
554.97, 2561.190
555.16, 3003.551
555.36, 3291.495
555.56, 2437.492
555.76, 2418.242
555.95, 3238.658
556.15, 2743.459
556.35, 2536.614
556.55, 2520.640
556.74, 2420.289
556.94, 2702.909
557.14, 2376.463
557.34, 2516.134
557.53, 2784.828
557.73, 2761.481
557.93, 2478.861
558.13, 2379.330
558.32, 2733.219
558.52, 2734.038
558.72, 2298.640
558.92, 2498.522
559.11, 2804.898
559.31, 2816.776
559.51, 2561.190
559.70, 2433.396
559.90, 2759.024
560.10, 2563.647
560.30, 2351.887
560.49, 2579.621
560.69, 2678.334
560.89, 3010.924
561.08, 2387.112
561.28, 2408.002
561.48, 2701.680
561.68, 2835.618
561.87, 2454.286
562.07, 2429.301
562.27, 2539.891
562.46, 2807.765
562.66, 2473.127
562.86, 2403.906
563.05, 2687.754
563.25, 2541.939
563.45, 2323.216
563.65, 2721.341
563.84, 2898.695
564.04, 2703.728
564.24, 2484.186
564.43, 2412.507
564.63, 2911.802
564.83, 2824.149
565.02, 2394.485
565.22, 2482.548
565.42, 2569.791
565.61, 2796.706
565.81, 2437.492
566.01, 2618.123
566.20, 2659.902
566.40, 2490.740
566.60, 2427.662
566.79, 2362.127
566.99, 2895.009
567.19, 2741.411
567.38, 2544.396
567.58, 2427.662
567.78, 2680.381
567.97, 2597.644
568.17, 2201.976
568.37, 2474.765
568.56, 3019.935
568.76, 2675.057
568.96, 2458.382
569.15, 2548.492
569.35, 4049.653
569.55, 3062.532
569.74, 2383.016
569.94, 2560.371
570.14, 2863.060
570.33, 2770.083
570.53, 2350.249
570.73, 2351.068
570.92, 2548.902
571.12, 2708.234
571.31, 2188.050
571.51, 2389.980
571.71, 2777.455
571.90, 2993.311
572.10, 2327.721
572.30, 2366.633
572.49, 3042.053
572.69, 2904.839
572.88, 2498.522
573.08, 2285.533
573.28, 3121.514
573.47, 2777.865
573.67, 2330.588
573.87, 2390.799
574.06, 2706.186
574.26, 2798.754
574.45, 2397.352
574.65, 2291.267
574.85, 2981.023
575.04, 2729.533
575.24, 2603.378
575.44, 2349.020
575.63, 2821.691
575.83, 2493.197
576.02, 2345.743
576.22, 2394.485
576.42, 2914.260
576.61, 2686.116
576.81, 2351.478
577.00, 2543.577
577.20, 2831.931
577.40, 2794.249
577.59, 2256.862
577.79, 2466.164
577.98, 2714.378
578.18, 2614.846
578.37, 2504.666
578.57, 2285.943
578.77, 2509.581
578.96, 2484.186
579.16, 2277.751
579.35, 2262.596
579.55, 2551.359
579.75, 2493.607
579.94, 2399.810
580.14, 2300.688
580.33, 3083.831
580.53, 2689.393
580.72, 2356.802
580.92, 2498.112
581.12, 2682.429
581.31, 2729.533
581.51, 2516.134
581.70, 2417.013
581.90, 3356.621
582.09, 2487.872
582.29, 2288.810
582.48, 2414.555
582.68, 2797.116
582.88, 2887.226
583.07, 2345.743
583.27, 2222.456
583.46, 2806.536
583.66, 3019.116
583.85, 2509.171
584.05, 2476.404
584.24, 3173.123
584.44, 2897.876
584.63, 2376.053
584.83, 2340.419
585.03, 2860.603
585.22, 2596.005
585.42, 2186.411
585.61, 2389.980
585.81, 2654.577
586.00, 2701.271
586.20, 2303.965
586.39, 2340.419
586.59, 2611.979
586.78, 2585.356
586.98, 2437.083
587.17, 2514.496
587.37, 2838.894
587.56, 3001.093
587.76, 2439.540
587.95, 2438.721
588.15, 2646.385
588.34, 2917.536
588.54, 2353.116
588.74, 2437.492
588.93, 2435.444
589.13, 2823.739
589.32, 2389.980
589.52, 2206.891
589.71, 2960.134
589.91, 2819.234
590.10, 2256.042
590.30, 2380.149
590.49, 2707.005
590.69, 2883.950
590.88, 2334.684
591.08, 2314.614
591.27, 2794.658
591.47, 2479.681
591.66, 2383.426
591.85, 2313.795
592.05, 2899.514
592.24, 2949.894
592.44, 2293.315
592.63, 2220.408
592.83, 2842.171
593.02, 2685.706
593.22, 2258.090
593.41, 2158.149
593.61, 2586.175
593.80, 3360.717
594.00, 2268.740
594.19, 2327.312
594.39, 2733.629
594.58, 2531.699
594.78, 2388.751
594.97, 2437.902
595.17, 2738.953
595.36, 2875.758
595.56, 2354.345
595.75, 2380.559
595.94, 2824.558
596.14, 2920.813
596.33, 2344.515
596.53, 2204.434
596.72, 2731.171
596.92, 2776.636
597.11, 2337.552
597.31, 2552.998
597.50, 2843.809
597.69, 2985.529
597.89, 2437.083
598.08, 2269.969
598.28, 2892.961
598.47, 2797.935
598.67, 2354.345
598.86, 2413.736
599.06, 2927.776
599.25, 2685.297
599.44, 2455.105
599.64, 2415.784
599.83, 2746.326
600.03, 2703.728
600.22, 2247.850
600.42, 2495.245
600.61, 2608.293
600.80, 2612.389
601.00, 2476.813
601.19, 2381.378
601.39, 2948.665
601.58, 2665.636
601.78, 2385.474
601.97, 2379.330
602.16, 2739.773
602.36, 2616.485
602.55, 2419.880
602.75, 2308.880
602.94, 2908.116
603.13, 2945.798
603.33, 2300.278
603.52, 2373.186
603.72, 2904.020
603.91, 2569.791
604.10, 2425.205
604.30, 2364.994
604.49, 2783.599
604.69, 2732.810
604.88, 2206.072
605.07, 2418.242
605.27, 2669.322
605.46, 2498.112
605.66, 2473.127
605.85, 2378.511
606.04, 2837.666
606.24, 2907.706
606.43, 2125.792
606.62, 2341.238
606.82, 2666.455
607.01, 2799.164
607.21, 2293.725
607.40, 2503.847
607.59, 2735.677
607.79, 2611.979
607.98, 2489.920
608.17, 2232.696
608.37, 2811.452
608.56, 3229.647
608.76, 2131.935
608.95, 2322.806
609.14, 2976.108
609.34, 2648.433
609.53, 2352.706
609.72, 2267.101
609.92, 2660.311
610.11, 2736.086
610.30, 2322.397
610.50, 2358.850
610.69, 2427.662
610.88, 2766.806
611.08, 2360.898
611.27, 2219.998
611.46, 2890.913
611.66, 2630.821
611.85, 2230.648
612.04, 2423.976
612.24, 2871.252
612.43, 2661.540
612.62, 2238.430
612.82, 2384.655
613.01, 2614.846
613.20, 2793.020
613.40, 2394.075
613.59, 2262.186
613.78, 2794.249
613.98, 2417.832
614.17, 2302.326
614.36, 2347.791
614.56, 3644.975
614.75, 2645.156
614.94, 2319.120
615.14, 2291.267
615.33, 3001.093
615.52, 2953.990
615.72, 2262.186
615.91, 2467.393
616.10, 2733.219
616.30, 2773.359
616.49, 2464.116
616.68, 2404.725
616.88, 3132.573
617.07, 3025.669
617.26, 2247.031
617.45, 2389.570
617.65, 3127.658
617.84, 2453.467
618.03, 2245.803
618.23, 2352.297
618.42, 2815.138
618.61, 2604.607
618.80, 2351.478
619.00, 2307.242
619.19, 2956.448
619.38, 2755.337
619.58, 2339.600
619.77, 2353.116
619.96, 2974.470
620.15, 2661.950
620.35, 2502.208
620.54, 2381.788
620.73, 2677.514
620.93, 2853.230
621.12, 2244.574
621.31, 2399.810
621.50, 2562.418
621.70, 3232.104
621.89, 2256.042
622.08, 2139.308
622.27, 2830.702
622.47, 2931.872
622.66, 2235.972
622.85, 2338.371
623.04, 2741.411
623.24, 2652.120
623.43, 2387.522
623.62, 2361.718
623.81, 2786.466
624.01, 2867.566
624.20, 2264.234
624.39, 2510.400
624.58, 2594.367
624.78, 2703.728
624.97, 2302.736
625.16, 2308.470
625.35, 2759.843
625.55, 2816.776
625.74, 2369.090
625.93, 2387.112
626.12, 2629.182
626.32, 2571.839
626.51, 2262.186
626.70, 2314.614
626.89, 2738.953
627.09, 2666.046
627.28, 2278.980
627.47, 2350.659
627.66, 2935.149
627.85, 2800.392
628.05, 2242.935
628.24, 2324.035
628.43, 2907.296
628.62, 2929.005
628.82, 2287.581
629.01, 2512.858
629.20, 2840.123
629.39, 2863.060
629.58, 2200.338
629.78, 2344.105
629.97, 2659.083
630.16, 2666.455
630.35, 2374.825
630.54, 2369.500
630.74, 2590.680
630.93, 2580.031
631.12, 2264.234
631.31, 2169.618
631.50, 2795.068
631.70, 2953.581
631.89, 2213.035
632.08, 2412.098
632.27, 2479.681
632.46, 2880.263
632.65, 2435.035
632.85, 2249.898
633.04, 2720.522
633.23, 2931.053
633.42, 2365.404
633.61, 2333.865
633.81, 2777.455
634.00, 2715.607
634.19, 2390.389
634.38, 2362.127
634.57, 2689.393
634.76, 2547.264
634.96, 2236.382
635.15, 2304.784
635.34, 2874.119
635.53, 2920.813
635.72, 2401.039
635.91, 2169.618
636.11, 2849.544
636.30, 2847.496
636.49, 2380.149
636.68, 2274.064
636.87, 2507.533
637.06, 3214.901
637.26, 2326.493
637.45, 2332.636
637.64, 2638.193
637.83, 2749.603
638.02, 2242.935
638.21, 2413.736
638.40, 3107.997
638.60, 3111.274
638.79, 2450.190
638.98, 2208.529
639.17, 2841.352
639.36, 2521.869
639.55, 2397.352
639.74, 2372.777
639.93, 2674.647
640.13, 2811.452
640.32, 2297.002
640.51, 2301.507
640.70, 2887.226
640.89, 2786.466
641.08, 2361.718
641.27, 2292.906
641.46, 2811.042
641.66, 2889.684
641.85, 2305.194
642.04, 2245.803
642.23, 2922.451
642.42, 2657.444
642.61, 2344.515
642.80, 2249.898
642.99, 2688.573
643.18, 2981.023
643.38, 2365.814
643.57, 2371.548
643.76, 2561.599
643.95, 2964.640
644.14, 2419.880
644.33, 2449.780
644.52, 2988.396
644.71, 2669.322
644.90, 2284.304
645.09, 2298.231
645.29, 2797.935
645.48, 2731.990
645.67, 2516.544
645.86, 2466.983
646.05, 2847.086
646.24, 3010.514
646.43, 2256.042
646.62, 2390.799
646.81, 2620.171
647.00, 2726.256
647.19, 2223.275
647.38, 2366.633
647.57, 2793.429
647.77, 2851.592
647.96, 2358.441
648.15, 2302.736
648.34, 2888.455
648.53, 3035.090
648.72, 2324.445
648.91, 2535.385
649.10, 2908.935
649.29, 2414.965
649.48, 2265.053
649.67, 2376.463
649.86, 3042.872
650.05, 2437.902
650.24, 2379.330
650.43, 2549.312
650.62, 2740.182
650.81, 3044.101
651.01, 2244.983
651.20, 2358.850
651.39, 2875.758
651.58, 2974.060
651.77, 2229.009
651.96, 2385.474
652.15, 2847.905
652.34, 2671.780
652.53, 2443.636
652.72, 2350.249
652.91, 2942.522
653.10, 2847.496
653.29, 2289.629
653.48, 2278.980
653.67, 2876.986
653.86, 2663.998
654.05, 2269.969
654.24, 2324.035
654.43, 2650.891
654.62, 2625.086
654.81, 2312.157
655.00, 2349.020
655.19, 2688.983
655.38, 2881.082
655.57, 2272.426
655.76, 2431.758
655.95, 2790.153
656.14, 2505.485
656.33, 2382.607
656.52, 2366.633
656.71, 2646.795
656.90, 2691.441
657.09, 2298.231
657.28, 2272.426
657.47, 2792.610
657.66, 2822.101
657.85, 2276.112
658.04, 2413.326
658.23, 2552.998
658.42, 2870.433
658.61, 2337.142
658.80, 2272.426
658.99, 2734.038
659.18, 3230.876
659.37, 2222.046
659.56, 2376.053
659.75, 2737.725
659.94, 2670.961
660.13, 2186.411
660.32, 2404.315
660.51, 2811.452
660.70, 2683.249
660.89, 2487.872
661.08, 2215.493
661.27, 2882.311
661.46, 2723.798
661.65, 2393.256
661.84, 2390.799
662.03, 2760.252
662.22, 2892.551
662.41, 2273.245
662.60, 2259.729
662.78, 2652.529
662.97, 2940.474
663.16, 2301.507
663.35, 2326.083
663.54, 2726.256
663.73, 2966.688
663.92, 2340.009
664.11, 2320.349
664.30, 2681.201
664.49, 2935.968
664.68, 2311.747
664.87, 2329.769
665.06, 2739.773
665.25, 2685.297
665.44, 2317.481
665.63, 2274.474
665.82, 2781.142
666.01, 3155.510
666.19, 2283.895
666.38, 2387.112
666.57, 3066.219
666.76, 2666.046
666.95, 2413.326
667.14, 2261.777
667.33, 2612.799
667.52, 3075.639
667.71, 2405.954
667.90, 2556.684
668.09, 2963.001
668.28, 2600.511
668.46, 2271.607
668.65, 2479.681
668.84, 3098.577
669.03, 2507.123
669.22, 2215.083
669.41, 2388.751
669.60, 3131.754
669.79, 2526.784
669.98, 2427.253
670.17, 2265.053
670.35, 2789.743
670.54, 2700.042
670.73, 2297.411
670.92, 2405.134
671.11, 2832.341
671.30, 2431.348
671.49, 2320.349
671.68, 2261.367
671.87, 2888.046
672.05, 2930.234
672.24, 2252.766
672.43, 2419.880
672.62, 2663.179
672.81, 2896.237
673.00, 2368.681
673.19, 2268.740
673.38, 2643.518
673.57, 2656.625
673.75, 2468.212
673.94, 2328.950
674.13, 2743.049
674.32, 2641.060
674.51, 2366.223
674.70, 2316.253
674.89, 2381.378
675.07, 2796.706
675.26, 2566.924
675.45, 2392.437
675.64, 2869.614
675.83, 2815.957
676.02, 2464.116
676.21, 2650.481
676.39, 2810.223
676.58, 2492.788
676.77, 2145.042
676.96, 2271.607
677.15, 2721.341
677.34, 3008.466
677.52, 2369.909
677.71, 2301.917
677.90, 2703.728
678.09, 2826.606
678.28, 2295.363
678.47, 2471.079
678.65, 2729.533
678.84, 3073.182
679.03, 2271.197
679.22, 2285.124
679.41, 2624.677
679.60, 2570.201
679.78, 2437.492
679.97, 2366.633
680.16, 2931.462
680.35, 2899.924
680.54, 2630.821
680.73, 2231.057
680.91, 2691.031
681.10, 2830.293
681.29, 2412.098
681.48, 2410.869
681.67, 2880.263
681.85, 2661.540
682.04, 2298.231
682.23, 2374.415
682.42, 2594.776
682.61, 2446.913
682.79, 2385.474
682.98, 2437.492
683.17, 2720.931
683.36, 2595.596
683.55, 2436.264
683.73, 2472.717
683.92, 2639.013
684.11, 2762.710
684.30, 2521.869
684.49, 2452.647
684.67, 2600.920
684.86, 2571.839
685.05, 2360.079
685.24, 2385.884
685.42, 3077.278
685.61, 2676.695
685.80, 2414.146
685.99, 2510.400
686.18, 2734.857
686.36, 2638.193
686.55, 2550.950
686.74, 2446.913
686.93, 2780.732
687.11, 2882.311
687.30, 2210.987
687.49, 2180.268
687.68, 2746.326
687.86, 2754.108
688.05, 2399.810
688.24, 2348.201
688.43, 3070.315
688.61, 2755.337
688.80, 2339.600
688.99, 2295.773
689.18, 3084.651
689.36, 2895.418
689.55, 2355.983
689.74, 2189.688
689.93, 2774.178
690.11, 2752.060
690.30, 2317.481
690.49, 2349.839
690.68, 3099.806
690.86, 2645.156
691.05, 2265.053
691.24, 2350.659
691.43, 2718.883
691.61, 2964.230
691.80, 2355.983
691.99, 2290.448
692.17, 2840.533
692.36, 2755.337
692.55, 2423.976
692.74, 2242.116
692.92, 2612.799
693.11, 2656.215
693.30, 2477.223
693.49, 2262.186
693.67, 2619.762
693.86, 2758.204
694.05, 2383.836
694.23, 2403.087
694.42, 3071.134
694.61, 2602.149
694.79, 2358.850
694.98, 2337.142
695.17, 2888.046
695.36, 2383.836
695.54, 2444.455
695.73, 2242.526
695.92, 2771.311
696.10, 2916.308
696.29, 2236.791
696.48, 2455.105
696.66, 3239.477
696.85, 2519.411
697.04, 2263.825
697.22, 2321.577
697.41, 2938.426
697.60, 2539.481
697.79, 2315.024
697.97, 2327.721
698.16, 2951.942
698.35, 2682.839
698.53, 2315.024
698.72, 2327.721
698.91, 3108.817
699.09, 2746.326
699.28, 2407.592
699.47, 2431.758
699.65, 2533.747
699.84, 2919.994
700.03, 2421.518
700.21, 2333.046
700.40, 2520.230
700.59, 2693.898
700.77, 2427.662
700.96, 2336.732
701.15, 2927.776
701.33, 2947.846
701.52, 2202.795
701.70, 2359.260
701.89, 3054.750
702.08, 2640.241
702.26, 2288.810
702.45, 2201.566
702.64, 2411.278
702.82, 2678.743
703.01, 2421.518
703.20, 2276.522
703.38, 3082.603
703.57, 2588.632
703.76, 2371.957
703.94, 2372.777
704.13, 2636.965
704.31, 2449.780
704.50, 2507.533
704.69, 2488.282
704.87, 2642.699
705.06, 2675.466
705.25, 2383.426
705.43, 2264.644
705.62, 2762.710
705.80, 2807.765
705.99, 2419.880
706.18, 2299.869
706.36, 2688.983
706.55, 2583.308
706.73, 2312.566
706.92, 2324.854
707.11, 2852.001
707.29, 3030.175
707.48, 2488.692
707.66, 2360.898
707.85, 2545.216
708.04, 2647.204
708.22, 2381.788
708.41, 2359.670
708.59, 2972.422
708.78, 2752.470
708.97, 2109.408
709.15, 2386.293
709.34, 2791.791
709.52, 2706.596
709.71, 2292.496
709.90, 2256.862
710.08, 2936.787
710.27, 2431.348
710.45, 2332.636
710.64, 2262.186
710.82, 2847.086
711.01, 2619.352
711.20, 2374.825
711.38, 2226.961
711.57, 2645.566
711.75, 2488.282
711.94, 2477.223
712.12, 2414.146
712.31, 2667.274
712.50, 2890.913
712.68, 2274.884
712.87, 2473.537
713.05, 2702.090
713.24, 2477.223
713.42, 2302.326
713.61, 2300.278
713.79, 2874.529
713.98, 2528.013
714.17, 2300.278
714.35, 2348.611
714.54, 2634.097
714.72, 2588.632
714.91, 2369.909
715.09, 2451.419
715.28, 2494.836
715.46, 3026.898
715.65, 2273.245
715.83, 2295.363
716.02, 3025.669
716.21, 2837.256
716.39, 2351.068
716.58, 2246.212
716.76, 2693.898
716.95, 2899.105
717.13, 2312.566
717.32, 2296.183
717.50, 3097.758
717.69, 2914.260
717.87, 2314.614
718.06, 2342.467
718.24, 2557.913
718.43, 2842.171
718.61, 2392.847
718.80, 2376.873
718.98, 2759.024
719.17, 2805.717
719.35, 2449.371
719.54, 2372.367
719.72, 2607.883
719.91, 2763.119
720.09, 2223.684
720.28, 2416.194
720.46, 2754.928
720.65, 3137.898
720.83, 2295.363
721.02, 2430.529
721.20, 2943.341
721.39, 2701.680
721.57, 2312.976
721.76, 2522.688
721.94, 2790.972
722.13, 2699.632
722.31, 2435.444
722.50, 2431.348
722.68, 2629.182
722.87, 3020.754
723.05, 2306.832
723.24, 2981.433
723.42, 2572.658
723.61, 3038.366
723.79, 2253.994
723.98, 2268.740
724.16, 3042.462
724.34, 2547.264
724.53, 2461.658
724.71, 2555.865
724.90, 2680.791
725.08, 2852.411
725.27, 2301.507
725.45, 2252.356
725.64, 2518.182
725.82, 3053.112
726.01, 2164.703
726.19, 2267.101
726.38, 2621.810
726.56, 2511.219
726.74, 2480.909
726.93, 2308.470
727.11, 3330.407
727.30, 2694.717
727.48, 2346.563
727.67, 2400.219
727.85, 2810.223
728.04, 2976.518
728.22, 2386.293
728.40, 2412.098
728.59, 2764.758
728.77, 2741.821
728.96, 2285.533
729.14, 2333.046
729.33, 3304.193
729.51, 2822.101
729.69, 2497.293
729.88, 2278.980
730.06, 2815.138
730.25, 2765.167
730.43, 2349.020
730.61, 2410.459
730.80, 2739.773
730.98, 2969.555
731.17, 2391.208
731.35, 2311.747
731.54, 2663.588
731.72, 2890.094
731.90, 2278.160
732.09, 2370.319
732.27, 2967.916
732.46, 2933.920
732.64, 2308.880
732.82, 2333.046
733.01, 2774.178
733.19, 2856.507
733.38, 2126.201
733.56, 2444.046
733.74, 2816.776
733.93, 2933.920
734.11, 2336.323
734.29, 2248.670
734.48, 2833.979
734.66, 2700.452
734.85, 2234.334
735.03, 2263.005
735.21, 2742.230
735.40, 3072.772
735.58, 2382.197
735.77, 2315.843
735.95, 2899.514
736.13, 2621.400
736.32, 2271.197
736.50, 2443.636
736.68, 2609.931
736.87, 2973.241
737.05, 2413.736
737.23, 2418.651
737.42, 2832.750
737.60, 2691.031
737.79, 2380.968
737.97, 2311.747
738.15, 2917.536
738.34, 2738.544
738.52, 2423.976
738.70, 2460.839
738.89, 2925.728
739.07, 2653.758
739.25, 2506.304
739.44, 2382.197
739.62, 3045.739
739.80, 2594.776
739.99, 2229.009
740.17, 2412.917
740.35, 3114.141
740.54, 2933.510
740.72, 2310.518
740.90, 2273.245
741.09, 2522.278
741.27, 2729.942
741.45, 2437.083
741.64, 2279.799
741.82, 2885.178
742.00, 2703.728
742.19, 2393.256
742.37, 2395.304
742.55, 2650.891
742.74, 2747.964
742.92, 2324.445
743.10, 2533.337
743.29, 2959.315
743.47, 2986.758
743.65, 2339.190
743.83, 2491.559
744.02, 2755.337
744.20, 2610.751
744.38, 2254.814
744.57, 2316.253
744.75, 2539.072
744.93, 2673.828
745.12, 2365.404
745.30, 2348.201
745.48, 3289.038
745.66, 2520.640
745.85, 2269.149
746.03, 2294.954
746.21, 2972.012
746.40, 2786.057
746.58, 2449.780
746.76, 2292.906
746.94, 2992.492
747.13, 2833.979
747.31, 2302.736
747.49, 2448.961
747.68, 2781.142
747.86, 2920.403
748.04, 2323.625
748.22, 2306.013
748.41, 2926.547
748.59, 2943.341
748.77, 2263.005
748.95, 2424.795
749.14, 2627.134
749.32, 2807.356
749.50, 2358.850
749.68, 2219.589
749.87, 2660.311
750.05, 2765.167
750.23, 2352.297
750.42, 2386.293
750.60, 2708.234
750.78, 2660.311
750.96, 2475.585
751.15, 2512.038
751.33, 2474.765
751.51, 2953.171
751.69, 2341.238
751.87, 2346.153
752.06, 2564.466
752.24, 2752.470
752.42, 2320.758
752.60, 2315.843
752.79, 3036.318
752.97, 2868.795
753.15, 2301.098
753.33, 2383.426
753.52, 2696.356
753.70, 2734.038
753.88, 2303.965
754.06, 2472.717
754.24, 2670.142
754.43, 3018.296
754.61, 2350.659
754.79, 2293.725
754.97, 2626.725
755.16, 2908.525
755.34, 2456.334
755.52, 2463.297
755.70, 2791.791
755.88, 2541.939
756.07, 2323.216
756.25, 2330.998
756.43, 2888.455
756.61, 2522.278
756.79, 2441.588
756.98, 2282.256
757.16, 2788.514
757.34, 2533.747
757.52, 2310.928
757.70, 2364.585
757.89, 2919.584
758.07, 3301.326
758.25, 2367.042
758.43, 2256.452
758.61, 2812.271
758.80, 2832.341
758.98, 2446.913
759.16, 2352.707
759.34, 2896.647
759.52, 2674.238
759.70, 2378.920
759.89, 2352.297
760.07, 2691.031
760.25, 2732.810
760.43, 2227.780
760.61, 2398.581
760.79, 2604.197
760.98, 2689.802
761.16, 2353.116
761.34, 2426.024
761.52, 2415.374
761.70, 2769.673
761.88, 2370.319
762.07, 2270.788
762.25, 3049.016
762.43, 2729.123
762.61, 2336.732
762.79, 2255.633
762.97, 2699.223
763.15, 2572.249
763.34, 2210.577
763.52, 2264.234
763.70, 2981.433
763.88, 2883.130
764.06, 2465.754
764.24, 2267.101
764.42, 2847.905
764.61, 2637.374
764.79, 2218.360
764.97, 2350.659
765.15, 2536.204
765.33, 2934.330
765.51, 2364.175
765.69, 2590.680
765.87, 2911.392
766.06, 2901.972
766.24, 2251.127
766.42, 2208.120
766.60, 2798.754
766.78, 3039.595
766.96, 2495.655
767.14, 2351.478
767.32, 2910.164
767.50, 2545.625
767.69, 2376.053
767.87, 2451.419
768.05, 2990.854
768.23, 2666.455
768.41, 2555.046
768.59, 2275.703
768.77, 2787.695
768.95, 2744.278
769.13, 2319.939
769.32, 2304.374
769.50, 2843.809
769.68, 2854.049
769.86, 2402.677
770.04, 2274.884
770.22, 2436.673
770.40, 2753.289
770.58, 2265.463
770.76, 2271.607
770.94, 2993.311
771.12, 2537.024
771.30, 2301.917
771.49, 2486.644
771.67, 2814.319
771.85, 2760.662
772.03, 2351.478
772.21, 2374.415
772.39, 2696.356
772.57, 2909.344
772.75, 2237.201
772.93, 2426.024
773.11, 2950.713
773.29, 2822.511
773.47, 2371.548
773.65, 2472.717
773.83, 3009.285
774.01, 2609.112
774.19, 2378.920
774.38, 2542.348
774.56, 2972.831
774.74, 2903.200
774.92, 2306.422
775.10, 2381.788
775.28, 2573.478
775.46, 3070.724
775.64, 2286.762
775.82, 2290.858
776.00, 2447.732
776.18, 2602.559
776.36, 2260.548
776.54, 2548.083
776.72, 2706.186
776.90, 2810.223
777.08, 2328.131
777.26, 2433.806
777.44, 2693.079
777.62, 2872.071
777.80, 2314.205
777.98, 2376.873
778.16, 2682.020
778.34, 2849.134
778.52, 2502.618
778.70, 2382.197
778.88, 2689.802
779.06, 2527.193
779.24, 2317.481
779.42, 2461.249
779.60, 2994.540
779.78, 2790.562
779.96, 2264.234
780.14, 2341.647
780.32, 2784.009
780.50, 2940.474
780.68, 2371.548
780.86, 2346.153
781.04, 2797.935
781.22, 2636.965
781.40, 2460.020
781.58, 2321.987
781.76, 2737.725
781.94, 2845.857
782.12, 2417.013
782.30, 2519.411
782.48, 2852.001
782.66, 2833.979
782.84, 2394.895
783.02, 2462.478
783.20, 2875.758
783.38, 2953.990
783.56, 2255.633
783.74, 2286.762
783.92, 2607.883
784.10, 2829.474
784.28, 2394.075
784.46, 2383.426
784.64, 2770.083
784.82, 2753.289
785.00, 2286.762
785.18, 2292.087
785.36, 2969.555
785.54, 2424.385
785.72, 2383.016
785.90, 2361.718
786.08, 2546.035
786.26, 2657.444
786.43, 2443.636
786.61, 2405.134
786.79, 3155.510
786.97, 3100.215
787.15, 2392.027
787.33, 2292.087
787.51, 2604.197
787.69, 2975.289
787.87, 2359.260
788.05, 2338.780
788.23, 3368.499
788.41, 2675.876
788.59, 2460.839
788.77, 2400.219
788.95, 2801.212
789.13, 2777.046
789.30, 2388.751
789.48, 2287.581
789.66, 2840.533
789.84, 2805.717
790.02, 2338.780
790.20, 2112.685
790.38, 2867.566
790.56, 2662.769
790.74, 2317.891
790.92, 2414.146
791.10, 2899.924
791.28, 2953.171
791.45, 2580.031
791.63, 2189.279
791.81, 3159.606
791.99, 2864.699
792.17, 2296.592
792.35, 2366.223
792.53, 2389.570
792.71, 2904.429
792.89, 2279.799
793.07, 2507.533
793.24, 2700.452
793.42, 2983.890
793.60, 2336.323
793.78, 2362.946
793.96, 2704.957
794.14, 2759.843
794.32, 2354.754
794.50, 2395.304
794.67, 2790.562
794.85, 2691.850
795.03, 2426.024
795.21, 2415.374
795.39, 2775.817
795.57, 2815.547
795.75, 2417.832
795.93, 2432.168
796.10, 3134.621
796.28, 2661.950
796.46, 2279.389
796.64, 2366.633
796.82, 2977.747
797.00, 2922.861
797.18, 2371.957
797.35, 2316.662
797.53, 2751.241
797.71, 2814.728
797.89, 2541.120
798.07, 2378.101
798.25, 2754.928
798.43, 3000.274
798.60, 2388.341
798.78, 2402.267
798.96, 3089.566
799.14, 2573.887
799.32, 2245.393
799.50, 2402.677
799.67, 2684.068
799.85, 2785.238
800.03, 2424.385
800.21, 2440.360
800.39, 2832.750
800.57, 2885.588
800.74, 2379.740
800.92, 2376.053
801.10, 2681.610
801.28, 2528.422
801.46, 2254.814
801.64, 2326.902
801.81, 3053.931
801.99, 2669.732
802.17, 2413.736
802.35, 2420.289
802.53, 2693.898
802.70, 2194.603
802.88, 2309.290
803.06, 2251.946
803.24, 2903.200
803.42, 2827.835
803.59, 2308.470
803.77, 2190.917
803.95, 3140.765
804.13, 2880.673
804.31, 2391.618
804.48, 2364.175
804.66, 2903.610
804.84, 2543.987
805.02, 2438.312
805.20, 2449.371
805.37, 2698.404
805.55, 2772.130
805.73, 2387.112
805.91, 2432.577
806.08, 2903.200
806.26, 2749.603
806.44, 2315.024
806.62, 2234.334
806.80, 2758.204
806.97, 2683.249
807.15, 2403.496
807.33, 2505.895
807.51, 2885.178
807.68, 2316.662
807.86, 2365.813
808.04, 2325.264
808.22, 2779.503
808.39, 4452.694
808.57, 2355.164
808.75, 2388.341
808.93, 2767.215
809.10, 2539.891
809.28, 2382.197
809.46, 2340.009
809.64, 2985.119
809.81, 2575.116
809.99, 2396.533
810.17, 2204.434
810.35, 3325.082
810.52, 2744.688
810.70, 2353.526
810.88, 2383.426
811.06, 2759.433
811.23, 3016.248
811.41, 2300.278
811.59, 2139.718
811.77, 2980.204
811.94, 2560.371
812.12, 2518.182
812.30, 2384.655
812.47, 2859.374
812.65, 2962.182
812.83, 2423.157
813.01, 2361.718
813.18, 2613.208
813.36, 2849.953
813.54, 2253.175
813.71, 2377.692
813.89, 3254.222
814.07, 2887.226
814.25, 2483.367
814.42, 2392.027
814.60, 3123.562
814.78, 2904.429
814.95, 2209.349
815.13, 2475.175
815.31, 2692.669
815.49, 2969.555
815.66, 2358.031
815.84, 2423.566
816.02, 2953.171
816.19, 2744.278
816.37, 2477.223
816.55, 2462.887
816.72, 3024.850
816.90, 2620.990
817.08, 2272.426
817.25, 2327.721
817.43, 2957.676
817.61, 2670.551
817.78, 2482.548
817.96, 2529.651
818.14, 2559.142
818.31, 2907.706
818.49, 2382.607
818.67, 2310.518
818.84, 2574.706
819.02, 2514.906
819.20, 2264.644
819.37, 2415.784
819.55, 2700.861
819.73, 2909.344
819.90, 2377.282
820.08, 2656.215
820.26, 2906.477
820.43, 2985.529
820.61, 2471.079
820.79, 2338.371
820.96, 2783.190
821.14, 2661.540
821.32, 2406.363
821.49, 2344.515
821.67, 2708.234
821.85, 2708.643
822.02, 2364.994
822.20, 2378.511
822.37, 3025.669
822.55, 2482.138
822.73, 2536.614
822.90, 2445.275
823.08, 3093.662
823.26, 2652.939
823.43, 2549.721
823.61, 2410.459
823.78, 2926.138
823.96, 2552.588
824.14, 2466.574
824.31, 2365.404
824.49, 3069.905
824.67, 3090.794
824.84, 2408.411
825.02, 2417.832
825.19, 2869.204
825.37, 3209.167
825.55, 2442.817
825.72, 2346.563
825.90, 2553.817
826.07, 2682.429
826.25, 2534.976
826.43, 2290.858
826.60, 2420.699
826.78, 2779.094
826.95, 2336.732
827.13, 2288.400
827.31, 3092.023
827.48, 2911.392
827.66, 2347.791
827.83, 2614.027
828.01, 2718.064
828.19, 2755.337
828.36, 2367.452
828.54, 2542.348
828.71, 2632.459
828.89, 2695.536
829.06, 2312.157
829.24, 2648.843
829.42, 2680.791
829.59, 2967.097
829.77, 2448.551
829.94, 2376.873
830.12, 2778.684
830.29, 2586.994
830.47, 2349.430
830.65, 2290.448
830.82, 3094.481
831.00, 2711.920
831.17, 2323.216
831.35, 2390.799
831.52, 2772.950
831.70, 2809.404
831.87, 2195.422
832.05, 2229.828
832.23, 2761.891
832.40, 2750.832
832.58, 2523.098
832.75, 2372.367
832.93, 2691.031
833.10, 2630.411
833.28, 2494.016
833.45, 2363.766
833.63, 2865.108
833.80, 2463.297
833.98, 2396.533
834.15, 2473.946
834.33, 2811.452
834.51, 2811.861
834.68, 2259.729
834.86, 2239.659
835.03, 2691.441
835.21, 2795.887
835.38, 2375.644
835.56, 2380.149
835.73, 2830.702
835.91, 2957.676
836.08, 2272.017
836.26, 2453.057
836.43, 2768.444
836.61, 2861.832
836.78, 2344.105
836.96, 2254.404
837.13, 3218.588
837.31, 2908.116
837.48, 2482.548
837.66, 2286.352
837.83, 2838.075
838.01, 2883.950
838.18, 2149.958
838.36, 2145.452
838.53, 2666.455
838.71, 3098.577
838.88, 2211.397
839.06, 2277.751
839.23, 2817.595
839.41, 2776.226
839.58, 2263.415
839.76, 2115.961
839.93, 2965.459
840.11, 2924.090
840.28, 2228.190
840.46, 2320.758
840.63, 2575.935
840.81, 2731.990
840.98, 2177.400
841.15, 2222.046
841.33, 2859.784
841.50, 2661.540
841.68, 2292.496
841.85, 2305.603
842.03, 3104.721
842.20, 3014.610
842.38, 2183.544
842.55, 2167.980
842.73, 2849.953
842.90, 2666.455
843.08, 2278.980
843.25, 2411.688
843.42, 2760.662
843.60, 2951.123
843.77, 2161.836
843.95, 2214.673
844.12, 2446.094
844.30, 2992.492
844.47, 2176.991
844.64, 2141.766
844.82, 3250.126
844.99, 2754.108
845.17, 2281.437
845.34, 2104.493
845.52, 2779.913
845.69, 2938.016
845.87, 2287.581
846.04, 2192.555
846.21, 2801.212
846.39, 2847.496
846.56, 2286.762
846.74, 2212.216
846.91, 2756.566
847.08, 2711.511
847.26, 2121.286
847.43, 2229.009
847.61, 2750.422
847.78, 3151.824
847.95, 2274.064
848.13, 2163.884
848.30, 2827.016
848.48, 2725.437
848.65, 2269.149
848.83, 2263.415
849.00, 2662.359
849.17, 2805.717
849.35, 2252.766
849.52, 2125.382
849.69, 2892.551
849.87, 2687.345
850.04, 2146.681
850.22, 2091.386
850.39, 2726.256
850.56, 3009.285
850.74, 2106.541
850.91, 2145.042
851.09, 2625.906
851.26, 2849.953
851.43, 2051.655
851.61, 2282.666
851.78, 2641.880
851.95, 2738.953
852.13, 2159.788
852.30, 2077.050
852.48, 3311.565
852.65, 2809.813
852.82, 2120.876
853.00, 2165.522
853.17, 2940.064
853.34, 2458.791
853.52, 2219.998
853.69, 2045.102
853.86, 2985.119
854.04, 2836.846
854.21, 2251.946
854.38, 2151.596
854.56, 2624.677
854.73, 2593.138
854.90, 2250.308
855.08, 2180.268
855.25, 2899.105
855.42, 2410.869
855.60, 2309.699
855.77, 2235.153
855.95, 2833.979
856.12, 2901.972
856.29, 2097.120
856.46, 2262.186
856.64, 2697.175
856.81, 2844.219
856.98, 2265.053
857.16, 2206.482
857.33, 2567.743
857.50, 2914.669
857.68, 2152.006
857.85, 2231.876
858.02, 2622.629
858.20, 2677.105
858.37, 2229.009
858.54, 2103.674
858.72, 3852.639
858.89, 3055.979
859.06, 2183.544
859.24, 2151.186
859.41, 2898.695
859.58, 2903.200
859.75, 2217.950
859.93, 2177.810
860.10, 2863.470
860.27, 2926.957
860.45, 2218.769
860.62, 2264.644
860.79, 2815.547
860.97, 2866.337
861.14, 2241.297
861.31, 2276.112
861.48, 2805.717
861.66, 2562.828
861.83, 2121.696
862.00, 2146.271
862.17, 2566.514
862.35, 2928.186
862.52, 2150.367
862.69, 2311.747
862.87, 2893.370
863.04, 2850.772
863.21, 2128.249
863.38, 2220.408
863.56, 2878.625
863.73, 2686.116
863.90, 2182.725
864.07, 2428.891
864.25, 3128.887
864.42, 2658.673
864.59, 2106.131
864.76, 2150.777
864.94, 3010.514
865.11, 2642.289
865.28, 2081.146
865.45, 2192.555
865.63, 2774.998
865.80, 2582.898
865.97, 2204.843
866.14, 2118.419
866.32, 2892.141
866.49, 2657.854
866.66, 2332.636
866.83, 2145.042
867.01, 2696.356
867.18, 2707.824
867.35, 2043.054
867.52, 2083.194
867.70, 3055.160
867.87, 3162.473
868.04, 2118.419
868.21, 2140.537
868.38, 2876.986
868.56, 3047.787
868.73, 2217.950
868.90, 2141.356
869.07, 2708.643
869.24, 2942.522
869.42, 2192.146
869.59, 2380.149
869.76, 3088.337
869.93, 2639.832
870.11, 2326.902
870.28, 2215.902
870.45, 3105.130
870.62, 2859.784
870.79, 2226.552
870.97, 2297.002
871.14, 2936.378
871.31, 2891.732
871.48, 2250.308
871.65, 2403.496
871.82, 3124.381
872.00, 2878.215
872.17, 2159.788
872.34, 2281.028
872.51, 2718.883
872.68, 2846.677
872.86, 2387.112
873.03, 2195.013
873.20, 2845.857
873.37, 3291.905
873.54, 2163.065
873.71, 2222.046
873.89, 3185.820
874.06, 2916.308
874.23, 2179.039
874.40, 2278.570
874.57, 3216.949
874.74, 2804.488
874.92, 2269.149
875.09, 2100.806
875.26, 3049.835
875.43, 2898.285
875.60, 2186.411
875.77, 2256.042
875.95, 2619.762
876.12, 2853.640
876.29, 2148.319
876.46, 2340.419
876.63, 2710.282
876.80, 2884.769
876.97, 2424.385
877.15, 2165.522
877.32, 2999.865
877.49, 2698.813
877.66, 2542.758
877.83, 2297.821
878.00, 2609.522
878.17, 3250.126
878.34, 2217.541
878.52, 2278.980
878.69, 2801.621
878.86, 2546.854
879.03, 2123.744
879.20, 2142.175
879.37, 2843.400
879.54, 3270.606
879.71, 2088.519
879.89, 2230.238
880.06, 3101.034
880.23, 2786.466
880.40, 2270.788
880.57, 2330.998
880.74, 2752.060
880.91, 3103.082
881.08, 2303.555
881.25, 2373.596
881.42, 3006.418
881.60, 2665.227
881.77, 2209.758
881.94, 2169.208
882.11, 2692.669
882.28, 2883.950
882.45, 2179.858
882.62, 2260.548
882.79, 3080.145
882.96, 2839.304
883.13, 2117.190
883.30, 2471.079
883.48, 2932.282
883.65, 2738.544
883.82, 2122.515
883.99, 2164.293
884.16, 3052.293
884.33, 2663.998
884.50, 2249.898
884.67, 2363.356
884.84, 2837.666
885.01, 2700.452
885.18, 2309.699
885.35, 2226.961
885.52, 2459.201
885.69, 2762.710
885.87, 2197.061
886.04, 2200.747
886.21, 2906.477
886.38, 2947.846
886.55, 2170.437
886.72, 2217.131
886.89, 3000.684
887.06, 2728.714
887.23, 2250.308
887.40, 2284.714
887.57, 2836.027
887.74, 2858.145
887.91, 2075.002
888.08, 2167.161
888.25, 2944.569
888.42, 3263.233
888.59, 2257.681
888.76, 2191.327
888.93, 2794.658
889.10, 2553.817
889.27, 2265.873
889.44, 2277.341
889.61, 2695.127
889.78, 2749.603
889.95, 2410.459
890.12, 2405.544
890.29, 2993.721
890.46, 2740.182
890.63, 2154.873
890.80, 2201.566
890.97, 2717.245
891.15, 2921.632
891.32, 2221.227
891.49, 2319.120
891.66, 3171.075
891.83, 2793.020
892.00, 2330.998
892.17, 2317.481
892.34, 2915.488
892.51, 2930.234
892.68, 2275.703
892.84, 2191.736
893.01, 2618.942
893.18, 2895.828
893.35, 2269.559
893.52, 2157.740
893.69, 2917.946
##END=
##TITLE= SPECTRASUITE EXPORTED SPECTRA: REFERENCE SPECTRUM
##JCAMP-DX= 5 $$EXPORTED SPECTRASUITE FILE
##DATA TYPE= UV/VIS SPECTRUM
##SAMPLE DESCRIPTION= REFERENCE SPECTRUM
##BLOCK_ID=3
##ORIGIN= OCEANOPTICS EXPORT
##OWNER= hugo
##SPECTROMETER/DATA SYSTEM= OCEANOPTICS EXPORT
##DATA PROCESSING= DARK:Yes REFERENCE:Yes
##DATA PROCESSING= BOXCAR:0 ELECTRICAL DARK: false
##.ACQUISITION TIME= 400
##.AVERAGES= 6
##XUNITS= NANOMETERS
##YUNITS= Transmission (%)
##XFACTOR= 1.0
##YFACTOR= 1.0
##FIRSTX= 176.36
##LASTX= 893.69
##FIRSTY= 32822.795
##MINY= 1597.074
##MAXY= 32822.795
##NPOINTS= 3648
##XYPOINTS= (XY..XY)
176.36, 32822.795
176.58, 32822.795
176.80, 32822.795
177.02, 1599.805
177.24, 1597.074
177.47, 2517.636
177.69, 2503.642
177.91, 2955.902
178.13, 2615.939
178.35, 2364.721
178.57, 2359.601
178.79, 2643.245
179.01, 2668.845
179.23, 2275.976
179.46, 2368.135
179.68, 2611.160
179.90, 2523.439
180.12, 2196.105
180.34, 2342.876
180.56, 2540.164
180.78, 2854.527
181.00, 2223.411
181.22, 2408.753
181.44, 2590.680
181.66, 2696.151
181.89, 2359.260
182.11, 2236.382
182.33, 2666.797
182.55, 3088.337
182.77, 2375.302
182.99, 2487.258
183.21, 2338.780
183.43, 2612.525
183.65, 2306.013
183.87, 2173.919
184.09, 2821.760
184.31, 2762.369
184.53, 2195.081
184.76, 2247.304
184.98, 2563.033
185.20, 2886.271
185.42, 2359.943
185.64, 2261.981
185.86, 2916.308
186.08, 3200.292
186.30, 2228.873
186.52, 2210.441
186.74, 2768.171
186.96, 2720.726
187.18, 2306.013
187.40, 2217.268
187.62, 2893.439
187.84, 2925.523
188.06, 2340.828
188.28, 2307.378
188.51, 2849.749
188.73, 2876.031
188.95, 2313.863
189.17, 2392.028
189.39, 2729.601
189.61, 2731.990
189.83, 2372.572
190.05, 2355.847
190.27, 2961.704
190.49, 2753.835
190.71, 2200.884
190.93, 2249.694
191.15, 2374.620
191.37, 2758.614
191.59, 2312.157
191.81, 2441.520
192.03, 2686.594
192.25, 2784.896
192.47, 2200.201
192.69, 2304.306
192.91, 2703.660
193.13, 2802.304
193.35, 2213.854
193.57, 2394.417
193.79, 2539.823
194.01, 2922.110
194.23, 2315.911
194.45, 2250.035
194.67, 2892.073
194.89, 2476.677
195.11, 2215.561
195.33, 2118.624
195.55, 2611.160
195.77, 2726.870
195.99, 2340.146
196.21, 2313.522
196.43, 2789.333
196.65, 2567.470
196.87, 2434.011
197.09, 2302.941
197.31, 2889.001
197.53, 2893.439
197.75, 2343.218
197.97, 2365.063
198.19, 2868.863
198.41, 3050.108
198.63, 2280.413
198.85, 2325.127
199.07, 2859.647
199.29, 2501.935
199.51, 2308.402
199.73, 2445.957
199.95, 2538.457
200.17, 2740.524
200.39, 2357.212
200.61, 2352.092
200.83, 2513.540
201.05, 2804.693
201.27, 2235.699
201.49, 2340.487
201.71, 2907.092
201.93, 2837.119
202.15, 2239.112
202.37, 2275.293
202.59, 2745.643
202.81, 2636.418
203.03, 2408.070
203.25, 2371.206
203.47, 2634.370
203.69, 2679.767
203.91, 2358.236
204.13, 2166.068
204.35, 2522.415
204.57, 2945.662
204.79, 2250.035
205.01, 2213.172
205.23, 2924.841
205.45, 2669.869
205.67, 2115.210
205.89, 2308.743
206.10, 2880.127
206.32, 2441.179
206.54, 2201.566
206.76, 2314.887
206.98, 2696.151
207.20, 2621.400
207.42, 2331.954
207.64, 2191.668
207.86, 2485.210
208.08, 3160.698
208.30, 2244.574
208.52, 2238.430
208.74, 2886.953
208.96, 2870.228
209.18, 2129.546
209.40, 2491.354
209.62, 2597.166
209.83, 2684.204
210.05, 2208.734
210.27, 2267.443
210.49, 2669.869
210.71, 2530.265
210.93, 2340.146
211.15, 2351.068
211.37, 2487.941
211.59, 2543.236
211.81, 2166.751
212.03, 2201.566
212.25, 2758.955
212.47, 2603.651
212.68, 2257.203
212.90, 2312.839
213.12, 2636.077
213.34, 2875.689
213.56, 2191.668
213.78, 2256.862
214.00, 2987.304
214.22, 2455.515
214.44, 2319.325
214.66, 2308.061
214.88, 2589.315
215.09, 2730.284
215.31, 2073.910
215.53, 2338.780
215.75, 2767.488
215.97, 2504.666
216.19, 2333.660
216.41, 2405.339
216.63, 2565.422
216.85, 2923.134
217.06, 2375.985
217.28, 2269.832
217.50, 2502.618
217.72, 2863.060
217.94, 2327.516
218.16, 2200.542
218.38, 2505.348
218.60, 2536.751
218.82, 2280.413
219.03, 2314.887
219.25, 2696.151
219.47, 2739.500
219.69, 2256.179
219.91, 2334.002
220.13, 3020.754
220.35, 2722.774
220.57, 2279.389
220.78, 2534.703
221.00, 2744.961
221.22, 2804.011
221.44, 2307.037
221.66, 2155.487
221.88, 2957.950
222.10, 2399.878
222.31, 2157.194
222.53, 2191.327
222.75, 2485.551
222.97, 2554.158
223.19, 2293.042
223.41, 2342.876
223.63, 2544.260
223.84, 3028.263
224.06, 2299.869
224.28, 2308.061
224.50, 2826.880
224.72, 2646.317
224.94, 2242.867
225.16, 2329.223
225.37, 3022.802
225.59, 2693.420
225.81, 2273.245
226.03, 2342.194
226.25, 2911.870
226.47, 2556.548
226.68, 2285.874
226.90, 2325.810
227.12, 2570.201
227.34, 2845.311
227.56, 2239.112
227.78, 2232.969
227.99, 2649.730
228.21, 2700.588
228.43, 2398.854
228.65, 2360.967
228.87, 2721.068
229.09, 2587.609
229.30, 2347.996
229.52, 2174.943
229.74, 2741.889
229.96, 2929.961
230.18, 2296.114
230.39, 2271.539
230.61, 2727.553
230.83, 2647.682
231.05, 2209.076
231.27, 2348.338
231.49, 2498.181
231.70, 2812.544
231.92, 2259.934
232.14, 2226.483
232.36, 2533.679
232.58, 2815.957
232.79, 2190.303
233.01, 2279.731
233.23, 2671.917
233.45, 2606.382
233.67, 2232.969
233.88, 2295.090
234.10, 2967.165
234.32, 2889.684
234.54, 2280.072
234.75, 2245.939
234.97, 2756.907
235.19, 2930.302
235.41, 2300.552
235.63, 2318.983
235.84, 2982.866
236.06, 2506.714
236.28, 2231.262
236.50, 2203.273
236.72, 2439.472
236.93, 2539.481
237.15, 2291.677
237.37, 2211.465
237.59, 2729.942
237.80, 2541.871
238.02, 2245.256
238.24, 2229.897
238.46, 2850.431
238.67, 2961.363
238.89, 2360.625
239.11, 2339.463
239.33, 2550.404
239.55, 2547.332
239.76, 2357.553
239.98, 2200.884
240.20, 2700.929
240.42, 2630.957
240.63, 2319.666
240.85, 2314.205
241.07, 2738.476
241.29, 2857.258
241.50, 2211.465
241.72, 2367.452
241.94, 2602.627
242.16, 3021.437
242.37, 2273.928
242.59, 2253.448
242.81, 2389.297
243.03, 2834.047
243.24, 2233.993
243.46, 2382.812
243.68, 2865.791
243.90, 2504.666
244.11, 2216.585
244.33, 2210.441
244.55, 2629.251
244.76, 2613.208
244.98, 2360.625
245.20, 2175.284
245.42, 2722.433
245.63, 2587.950
245.85, 2198.494
246.07, 2250.376
246.29, 2747.350
246.50, 2755.883
246.72, 2341.170
246.94, 2379.398
247.15, 2649.730
247.37, 2959.656
247.59, 2214.196
247.81, 2380.422
248.02, 2665.090
248.24, 2800.597
248.46, 2291.336
248.67, 2211.806
248.89, 2806.400
249.11, 2853.503
249.33, 2378.374
249.54, 2261.640
249.76, 2628.227
249.98, 2419.675
250.19, 2253.107
250.41, 2199.518
250.63, 2721.750
250.84, 2547.332
251.06, 2288.946
251.28, 2352.092
251.50, 2407.729
251.71, 2645.634
251.93, 2270.173
252.15, 2238.089
252.36, 2551.428
252.58, 3082.193
252.80, 2291.677
253.01, 2511.834
253.23, 2800.256
253.45, 2606.382
253.66, 2293.042
253.88, 2327.516
254.10, 2574.297
254.31, 2792.405
254.53, 2142.517
254.75, 2358.236
254.97, 2941.224
255.18, 2707.415
255.40, 2316.935
255.62, 2249.011
255.83, 2498.522
256.05, 2751.446
256.27, 2268.125
256.48, 2325.469
256.70, 2754.859
256.92, 2743.937
257.13, 2417.968
257.35, 2198.153
257.57, 2898.558
257.78, 2684.204
258.00, 2427.526
258.21, 2422.064
258.43, 2887.636
258.65, 2722.433
258.86, 2268.467
259.08, 2292.360
259.30, 2856.234
259.51, 2966.141
259.73, 2150.367
259.95, 2407.046
260.16, 2802.645
260.38, 2954.536
260.60, 2183.817
260.81, 2309.085
261.03, 2717.996
261.25, 2463.706
261.46, 2283.826
261.68, 2237.406
261.89, 2594.776
262.11, 2631.640
262.33, 2292.360
262.54, 2074.934
262.76, 2776.704
262.98, 2737.793
263.19, 2208.393
263.41, 2281.437
263.62, 2631.640
263.84, 2726.188
264.06, 2313.522
264.27, 2299.528
264.49, 2653.144
264.71, 2702.636
264.92, 2370.865
265.14, 2375.302
265.35, 2773.974
265.57, 2743.595
265.79, 2273.245
266.00, 2366.428
266.22, 2946.344
266.43, 2507.396
266.65, 2394.758
266.87, 2199.177
267.08, 2417.968
267.30, 2419.675
267.51, 2445.616
267.73, 2352.092
267.95, 3026.898
268.16, 2551.769
268.38, 2339.463
268.59, 2431.963
268.81, 2789.675
269.03, 2870.228
269.24, 2284.509
269.46, 2371.206
269.67, 2719.361
269.89, 2651.437
270.11, 2373.596
270.32, 2395.782
270.54, 2667.479
270.75, 3138.512
270.97, 2236.041
271.19, 2274.611
271.40, 2641.880
271.62, 2507.396
271.83, 2205.321
272.05, 2215.561
272.26, 2748.033
272.48, 2800.939
272.70, 2485.210
272.91, 2419.675
273.13, 2883.881
273.34, 2865.450
273.56, 2427.526
273.77, 2440.496
273.99, 3076.732
274.21, 3188.687
274.42, 2597.166
274.64, 2459.269
274.85, 2735.745
275.07, 2608.771
275.28, 2417.627
275.50, 2532.655
275.71, 2595.118
275.93, 2579.417
276.15, 2559.278
276.36, 2453.467
276.58, 2935.422
276.79, 2674.989
277.01, 2522.756
277.22, 2550.404
277.44, 3293.475
277.65, 2961.021
277.87, 2544.942
278.08, 2484.869
278.30, 3221.455
278.52, 2785.237
278.73, 2594.094
278.95, 2431.963
279.16, 2632.664
279.38, 2797.867
279.59, 2671.917
279.81, 2432.987
280.02, 3006.077
280.24, 3099.259
280.45, 2577.369
280.67, 2439.472
280.88, 2836.437
281.10, 3019.047
281.31, 2647.000
281.53, 2583.513
281.74, 2908.457
281.96, 2733.697
282.17, 2520.708
282.39, 2525.487
282.60, 2638.125
282.82, 2798.891
283.04, 2557.572
283.25, 2560.302
283.47, 2863.060
283.68, 2905.044
283.90, 2655.533
284.11, 2536.068
284.33, 2659.287
284.54, 2794.112
284.76, 2528.559
284.97, 2674.647
285.19, 2792.405
285.40, 3032.700
285.62, 2710.828
285.83, 2559.620
286.05, 2908.116
286.26, 2872.276
286.48, 2638.125
286.69, 2664.407
286.91, 2710.145
287.12, 3192.101
287.33, 2522.756
287.55, 2539.823
287.76, 3083.558
287.98, 3004.370
288.19, 2892.756
288.41, 2436.400
288.62, 2902.996
288.84, 2949.758
289.05, 2501.594
289.27, 2513.882
289.48, 3070.588
289.70, 2745.985
289.91, 2742.230
290.13, 2636.418
290.34, 2993.789
290.56, 2984.573
290.77, 2668.845
290.99, 2645.976
291.20, 2800.597
291.41, 2870.911
291.63, 2666.797
291.84, 2786.944
292.06, 3035.090
292.27, 2904.020
292.49, 2656.898
292.70, 2879.444
292.92, 3086.630
293.13, 3175.034
293.35, 2737.793
293.56, 2769.878
293.77, 2832.341
293.99, 3240.569
294.20, 2700.929
294.42, 2765.099
294.63, 3184.250
294.85, 3321.805
295.06, 2744.619
295.28, 2751.787
295.49, 2753.835
295.70, 3336.482
295.92, 2793.088
296.13, 2925.865
296.35, 3328.973
296.56, 3083.558
296.78, 2724.481
296.99, 2819.029
297.20, 3106.427
297.42, 3306.104
297.63, 2845.311
297.85, 2790.016
298.06, 3019.389
298.28, 3215.652
298.49, 2810.837
298.70, 2900.948
298.92, 3377.783
299.13, 3416.353
299.35, 2943.614
299.56, 2899.582
299.77, 3000.957
299.99, 3128.272
300.20, 3008.125
300.42, 2889.001
300.63, 3272.995
300.85, 3448.779
301.06, 3085.948
301.27, 2985.256
301.49, 3230.329
301.70, 3421.473
301.92, 3058.983
302.13, 3010.855
302.34, 3260.025
302.56, 3448.438
302.77, 3043.282
302.99, 3045.330
303.20, 3309.859
303.41, 3343.992
303.63, 3082.876
303.84, 2984.232
304.05, 3147.045
304.27, 3369.933
304.48, 3172.986
304.70, 2992.424
304.91, 3614.665
305.12, 3404.748
305.34, 3013.245
305.55, 3102.331
305.77, 3156.603
305.98, 3535.818
306.19, 3146.704
306.41, 3252.174
306.62, 3306.104
306.83, 3595.892
307.05, 3233.060
307.26, 3177.765
307.47, 3747.100
307.69, 3750.513
307.90, 3194.831
308.12, 3279.481
308.33, 3562.783
308.54, 3859.056
308.76, 3129.979
308.97, 3323.171
309.18, 3713.991
309.40, 3434.102
309.61, 3408.844
309.82, 3291.768
310.04, 3579.849
310.25, 3853.936
310.46, 3274.361
310.68, 3403.724
310.89, 3706.141
311.11, 3490.080
311.32, 3417.377
311.53, 3422.156
311.75, 3828.336
311.96, 3812.635
312.17, 3538.207
312.39, 3500.320
312.60, 3801.030
312.81, 3874.074
313.03, 3522.848
313.24, 3471.990
313.45, 3719.453
313.67, 3879.535
313.88, 3558.346
314.09, 3528.650
314.31, 3807.857
314.52, 3848.475
314.73, 3558.346
314.95, 3501.685
315.16, 4121.537
315.37, 4022.211
315.58, 3574.047
315.80, 3372.322
316.01, 3718.429
316.22, 3870.320
316.44, 3616.030
316.65, 3764.167
316.86, 3884.655
317.08, 3955.993
317.29, 3676.787
317.50, 3500.320
317.72, 3732.082
317.93, 4090.476
318.14, 3617.054
318.35, 3771.676
318.57, 3832.432
318.78, 4118.465
318.99, 3687.026
319.21, 3504.416
319.42, 4184.683
319.63, 3858.714
319.85, 3593.844
320.06, 3785.329
320.27, 3985.347
320.48, 3720.135
320.70, 3693.853
320.91, 3842.331
321.12, 4161.472
321.34, 4120.854
321.55, 3823.558
321.76, 3803.078
321.97, 4316.094
322.19, 4085.356
322.40, 3977.838
322.61, 3943.364
322.83, 4245.098
323.04, 4170.688
323.25, 3979.545
323.46, 4009.581
323.68, 4356.030
323.89, 4112.663
324.10, 3981.934
324.31, 4189.120
324.53, 4407.229
324.74, 4628.068
324.95, 4181.270
325.16, 4366.269
325.38, 4665.273
325.59, 4675.171
325.80, 4337.256
326.01, 4303.465
326.23, 4865.974
326.44, 4694.286
326.65, 4287.423
326.86, 4457.063
327.08, 4585.743
327.29, 4555.365
327.50, 4323.262
327.71, 4456.721
327.93, 4188.779
328.14, 4433.511
328.35, 4249.535
328.56, 4402.450
328.78, 4674.489
328.99, 4963.594
329.20, 4363.880
329.41, 4404.839
329.63, 4730.808
329.84, 4601.103
330.05, 4421.565
330.26, 4338.622
330.48, 4392.210
330.69, 4586.085
330.90, 4480.273
331.11, 4339.646
331.32, 4629.433
331.54, 4833.548
331.75, 4429.074
331.96, 4552.976
332.17, 5107.293
332.39, 4565.605
332.60, 4503.483
332.81, 4450.577
333.02, 4669.710
333.23, 4581.647
333.45, 4665.955
333.66, 4680.291
333.87, 4857.099
334.08, 4876.896
334.29, 4658.446
334.51, 4764.941
334.72, 5011.721
334.93, 4981.684
335.14, 4793.612
335.35, 4740.365
335.57, 4939.701
335.78, 4973.492
335.99, 4738.317
336.20, 4697.016
336.41, 4969.055
336.63, 5329.497
336.84, 4733.880
337.05, 5047.560
337.26, 5388.206
337.47, 5032.542
337.69, 5139.378
337.90, 4941.749
338.11, 5367.726
338.32, 5601.195
338.53, 4936.970
338.74, 5019.571
338.96, 5624.064
339.17, 5818.621
339.38, 5491.628
339.59, 5298.436
339.80, 5527.809
340.01, 5725.097
340.23, 5462.615
340.44, 5208.326
340.65, 5730.558
340.86, 5706.324
341.07, 5378.649
341.28, 5416.877
341.50, 5787.560
341.71, 5536.342
341.92, 5578.326
342.13, 5497.089
342.34, 5736.360
342.55, 5659.220
342.77, 5562.624
342.98, 5556.481
343.19, 5968.464
343.40, 6029.903
343.61, 5689.940
343.82, 5790.973
344.03, 5700.521
344.25, 6208.076
344.46, 5694.718
344.67, 5926.480
344.88, 6040.143
345.09, 6178.722
345.30, 5856.508
345.51, 5969.146
345.73, 6296.480
345.94, 6177.015
346.15, 6148.685
346.36, 6118.648
346.57, 6330.954
346.78, 6151.074
346.99, 6104.654
347.21, 6157.559
347.42, 6258.592
347.63, 6245.963
347.84, 6157.901
348.05, 6123.085
348.26, 6287.947
348.47, 6174.284
348.68, 6028.196
348.89, 6304.330
349.11, 6449.736
349.32, 6617.670
349.53, 6017.956
349.74, 6318.325
349.95, 6221.046
350.16, 6620.742
350.37, 6105.678
350.58, 6402.292
350.79, 6629.958
351.01, 6695.834
351.22, 6366.452
351.43, 6346.314
351.64, 6746.009
351.85, 6648.389
352.06, 6351.434
352.27, 6404.340
352.48, 6649.755
352.69, 6923.500
352.90, 6493.426
353.12, 6582.172
353.33, 6821.443
353.54, 6726.553
353.75, 6596.166
353.96, 6562.033
354.17, 6808.813
354.38, 7066.516
354.59, 6708.804
354.80, 6853.186
355.01, 6856.941
355.22, 7026.581
355.43, 6797.550
355.64, 6931.009
355.86, 7165.843
356.07, 7363.130
356.28, 6950.465
356.49, 6657.946
356.70, 7244.689
356.91, 7550.178
357.12, 7148.094
357.33, 7079.828
357.54, 7458.020
357.75, 7424.911
357.96, 7018.730
358.17, 7108.841
358.38, 7433.444
358.59, 7514.680
358.80, 7260.732
359.02, 7311.590
359.23, 7423.204
359.44, 7796.276
359.65, 7302.033
359.86, 7640.971
360.07, 7708.896
360.28, 7567.245
360.49, 7532.088
360.70, 7786.036
360.91, 7862.493
361.12, 7900.039
361.33, 7808.564
361.54, 7746.100
361.75, 8242.392
361.96, 8070.021
362.17, 8025.990
362.38, 7846.110
362.59, 8553.683
362.80, 8338.305
363.01, 7951.921
363.22, 8109.956
363.43, 7941.340
363.64, 8457.428
363.85, 7965.233
364.06, 8195.288
364.27, 8435.583
364.48, 8577.917
364.69, 8074.117
364.90, 8216.451
365.11, 8541.736
365.33, 8622.972
365.54, 8147.844
365.75, 8432.853
365.96, 8580.989
366.17, 8528.425
366.38, 8248.535
366.59, 8360.491
366.80, 8363.563
367.01, 9038.369
367.22, 8043.739
367.43, 8390.187
367.64, 8675.196
367.85, 8654.716
368.06, 8156.377
368.27, 8265.943
368.48, 9077.621
368.69, 8242.050
368.90, 8387.797
369.11, 8469.716
369.32, 8917.197
369.53, 8709.670
369.74, 8512.041
369.94, 8443.434
370.15, 8588.498
370.36, 8977.954
370.57, 8363.904
370.78, 8612.050
370.99, 8873.166
371.20, 9102.880
371.41, 8699.771
371.62, 8681.340
371.83, 8778.277
372.04, 8799.098
372.25, 8585.085
372.46, 8822.649
372.67, 8897.400
372.88, 9297.778
373.09, 8617.170
373.30, 8791.589
373.51, 8892.280
373.72, 9177.972
373.93, 8931.874
374.14, 8742.779
374.35, 9098.784
374.56, 9404.614
374.77, 9130.527
374.98, 8868.046
375.19, 9342.833
375.40, 9411.782
375.61, 9024.716
375.82, 9278.322
376.03, 9264.328
376.23, 9438.747
376.44, 9143.156
376.65, 9045.537
376.86, 9180.703
377.07, 9555.481
377.28, 9374.236
377.49, 9210.057
377.70, 9607.363
377.91, 9408.368
378.12, 9225.417
378.33, 9384.134
378.54, 9361.948
378.75, 9810.112
378.96, 9387.206
379.17, 9400.177
379.37, 9750.038
379.58, 9548.996
379.79, 9378.673
380.00, 9413.830
380.21, 9664.365
380.42, 9860.287
380.63, 9585.176
380.84, 9490.970
381.05, 9952.445
381.26, 9997.159
381.47, 9509.402
381.68, 9894.761
381.89, 10242.233
382.09, 9802.944
382.30, 9958.931
382.51, 9758.912
382.72, 10169.530
382.93, 9876.671
383.14, 9685.186
383.35, 10053.820
383.56, 10049.383
383.77, 10231.652
383.98, 9985.554
384.18, 10121.744
384.39, 10436.107
384.60, 10422.454
384.81, 9857.215
385.02, 9739.457
385.23, 10096.486
385.44, 10386.274
385.65, 10097.851
385.86, 10034.364
386.06, 10525.877
386.27, 10598.921
386.48, 10165.434
386.69, 10123.451
386.90, 10099.558
387.11, 10631.347
387.32, 10092.390
387.53, 10231.652
387.73, 10433.035
387.94, 10734.428
388.15, 10290.360
388.36, 10235.065
388.57, 10882.565
388.78, 10702.343
388.99, 10489.355
389.20, 10050.407
389.40, 11234.815
389.61, 10434.401
389.82, 10202.980
390.03, 10337.805
390.24, 10763.100
390.45, 10444.299
390.66, 10583.561
390.86, 10247.694
391.07, 10368.524
391.28, 10513.248
391.49, 10285.923
391.70, 10452.491
391.91, 10534.410
392.12, 11002.712
392.32, 10330.637
392.53, 10627.934
392.74, 10860.378
392.95, 11004.419
393.16, 10454.539
393.37, 10424.844
393.57, 10813.275
393.78, 10800.987
393.99, 11036.845
394.20, 10726.236
394.41, 11218.090
394.62, 11026.264
394.82, 10993.838
395.03, 10955.268
395.24, 11102.721
395.45, 11010.221
395.66, 10829.317
395.87, 10887.343
396.07, 11156.310
396.28, 11199.658
396.49, 11274.068
396.70, 10885.978
396.91, 11197.952
397.11, 11382.269
397.32, 10637.491
397.53, 11073.708
397.74, 11374.077
397.95, 11379.880
398.16, 10939.566
398.36, 11446.780
398.57, 11536.549
398.78, 11153.920
398.99, 11166.208
399.20, 11015.341
399.40, 10845.701
399.61, 11695.950
399.82, 11110.913
400.03, 11145.729
400.24, 11530.747
400.44, 11216.725
400.65, 11185.323
400.86, 11214.336
401.07, 11569.317
401.27, 11689.464
401.48, 11292.841
401.69, 11180.885
401.90, 12025.331
402.11, 11544.059
402.31, 11545.765
402.52, 11550.544
402.73, 11474.428
402.94, 11606.863
403.15, 11481.937
403.35, 11369.640
403.56, 12144.796
403.77, 11747.831
403.98, 11707.896
404.18, 11517.094
404.39, 11972.767
404.60, 11913.376
404.81, 11822.582
405.01, 11824.289
405.22, 12091.549
405.43, 12348.910
405.64, 12059.123
405.85, 11998.366
406.05, 12439.021
406.26, 12318.191
406.47, 12164.252
406.68, 12114.076
406.88, 12862.609
407.09, 12282.010
407.30, 11848.182
407.51, 11662.841
407.71, 12860.902
407.92, 11851.254
408.13, 11962.185
408.34, 12180.977
408.54, 12264.261
408.75, 11969.695
408.96, 12846.908
409.16, 12450.626
409.37, 12535.275
409.58, 12621.973
409.79, 12466.668
409.99, 12471.447
410.20, 12871.825
410.41, 12302.148
410.62, 12127.730
410.82, 12451.650
411.03, 13090.275
411.24, 12625.727
411.45, 12458.477
411.65, 12402.499
411.86, 12738.366
412.07, 12783.421
412.27, 12644.842
412.48, 12623.338
412.69, 12681.705
412.90, 13431.603
413.10, 12553.024
413.31, 12595.349
413.52, 12861.585
413.72, 12483.735
413.93, 12687.849
414.14, 12379.288
414.35, 12823.698
414.55, 13210.764
414.76, 12642.794
414.97, 12804.583
415.17, 12889.574
415.38, 12947.258
415.59, 12574.869
415.79, 12697.748
416.00, 13319.647
416.21, 13299.509
416.41, 12751.336
416.62, 12286.789
416.83, 13556.870
417.04, 13333.642
417.24, 12846.908
417.45, 12783.421
417.66, 13077.304
417.86, 13198.817
418.07, 12749.629
418.28, 13138.061
418.48, 13449.693
418.69, 13187.553
418.90, 13248.992
419.10, 12990.266
419.31, 13337.738
419.52, 13349.684
419.72, 13051.705
419.93, 13057.849
420.14, 13609.094
420.34, 13457.203
420.55, 12894.353
420.76, 13455.155
420.96, 13259.574
421.17, 13402.590
421.38, 13053.753
421.58, 13273.227
421.79, 13601.584
422.00, 13696.815
422.20, 12935.653
422.41, 13046.244
422.62, 13242.166
422.82, 13554.481
423.03, 13201.207
423.24, 13432.627
423.44, 13110.755
423.65, 13159.906
423.85, 13193.697
424.06, 13460.275
424.27, 13706.372
424.47, 13585.542
424.68, 13796.824
424.89, 13696.474
425.09, 13580.763
425.30, 13385.865
425.51, 13277.323
425.71, 13355.828
425.92, 13484.509
426.12, 14203.346
426.33, 13364.361
426.54, 12899.131
426.74, 13484.168
426.95, 13681.455
427.16, 12826.428
427.36, 13907.756
427.57, 13562.332
427.77, 14104.019
427.98, 13506.354
428.19, 13731.972
428.39, 13688.964
428.60, 13846.999
428.81, 13570.524
429.01, 13292.000
429.22, 13762.691
429.42, 13551.409
429.63, 13729.241
429.84, 13620.016
430.04, 14063.060
430.25, 14130.984
430.45, 13329.887
430.66, 14202.322
430.87, 13606.704
431.07, 13659.952
431.28, 13885.911
431.48, 13766.105
431.69, 14145.661
431.90, 13657.562
432.10, 14483.235
432.31, 13731.289
432.51, 14233.724
432.72, 14337.488
432.92, 14335.440
433.13, 14069.204
433.34, 14249.084
433.54, 14503.373
433.75, 14148.051
433.95, 14223.484
434.16, 14805.449
434.37, 14295.505
434.57, 14260.689
434.78, 14494.840
434.98, 14680.864
435.19, 14630.689
435.39, 14939.249
435.60, 14466.851
435.81, 14978.161
436.01, 14584.951
436.22, 14170.920
436.42, 14628.299
436.63, 15377.173
436.83, 15416.426
437.04, 14946.076
437.24, 14775.753
437.45, 15075.098
437.66, 14799.305
437.86, 14439.545
438.07, 15050.181
438.27, 15038.917
438.48, 14816.030
438.68, 14791.796
438.89, 15115.716
439.09, 15178.862
439.30, 15333.825
439.50, 14428.622
439.71, 15156.675
439.92, 15001.030
440.12, 15096.943
440.33, 14720.799
440.53, 15281.601
440.74, 15247.127
440.94, 15305.836
441.15, 14931.058
441.35, 14992.838
441.56, 15181.592
441.76, 15352.598
441.97, 15019.120
442.17, 15430.079
442.38, 14914.674
442.58, 15209.240
442.79, 14705.781
443.00, 14886.002
443.20, 15392.192
443.41, 14883.954
443.61, 14566.178
443.82, 14913.650
444.02, 14905.458
444.23, 14903.410
444.43, 14761.759
444.64, 14798.964
444.84, 15052.570
445.05, 14663.115
445.25, 14784.286
445.46, 14995.227
445.66, 14628.299
445.87, 14614.646
446.07, 14565.495
446.28, 14825.587
446.48, 15272.727
446.69, 14726.943
446.89, 14849.480
447.10, 14944.369
447.30, 15253.954
447.51, 15131.758
447.71, 15650.236
447.92, 15307.542
448.12, 15709.968
448.33, 15418.474
448.53, 15231.426
448.73, 15500.051
448.94, 16481.711
449.14, 15906.232
449.35, 15833.870
449.55, 15738.640
449.76, 16148.234
449.96, 16428.464
450.17, 15886.776
450.37, 16322.311
450.58, 16399.451
450.78, 16229.128
450.99, 16056.758
451.19, 16204.211
451.40, 16290.226
451.60, 16437.680
451.81, 16480.346
452.01, 16199.433
452.21, 16195.678
452.42, 16202.505
452.62, 15595.623
452.83, 15915.789
453.03, 16120.586
453.24, 15925.688
453.44, 16038.326
453.65, 15723.621
453.85, 16275.890
454.06, 15620.199
454.26, 15732.837
454.46, 15848.889
454.67, 15866.297
454.87, 15998.391
455.08, 16049.931
455.28, 15424.959
455.49, 16424.709
455.69, 16051.638
455.89, 15836.260
456.10, 15476.500
456.30, 16460.208
456.51, 16079.285
456.71, 15743.418
456.92, 15930.466
457.12, 16544.516
457.32, 15975.863
457.53, 16063.926
457.73, 16196.361
457.94, 16696.748
458.14, 16129.119
458.35, 16017.164
458.55, 15661.158
458.75, 16434.267
458.96, 16706.305
459.16, 16175.199
459.37, 16521.988
459.57, 16231.176
459.77, 16540.761
459.98, 16226.056
460.18, 16697.089
460.39, 16972.200
460.59, 16688.556
460.79, 16868.436
461.00, 16384.774
461.20, 17143.205
461.41, 17310.115
461.61, 17137.402
461.81, 17007.698
462.02, 17264.377
462.22, 18017.005
462.43, 17675.677
462.63, 17150.714
462.83, 17956.931
463.04, 17851.802
463.24, 18036.802
463.45, 17949.422
463.65, 18040.557
463.85, 18483.259
464.06, 17934.062
464.26, 18390.077
464.46, 18812.300
464.67, 19080.925
464.87, 18714.680
465.08, 18502.715
465.28, 19266.266
465.48, 19319.172
465.69, 19301.423
465.89, 19197.659
466.09, 20440.776
466.30, 20241.099
466.50, 19722.963
466.71, 20320.970
466.91, 20948.672
467.11, 21318.672
467.32, 20976.320
467.52, 20987.584
467.72, 21656.928
467.93, 21077.353
468.13, 21933.404
468.33, 21330.277
468.54, 22453.929
468.74, 22073.690
468.94, 22129.326
469.15, 21809.161
469.35, 21774.004
469.55, 21994.160
469.76, 21640.203
469.96, 21632.011
470.17, 21373.285
470.37, 22166.531
470.57, 21629.963
470.78, 21547.703
470.98, 22272.343
471.18, 22147.075
471.39, 21786.974
471.59, 22094.852
471.79, 22174.723
471.99, 22027.611
472.20, 22216.706
472.40, 22066.863
472.60, 21954.225
472.81, 22323.883
473.01, 22427.647
473.21, 22014.299
473.42, 22599.335
473.62, 22529.022
473.82, 22400.000
474.03, 22046.725
474.23, 22220.120
474.43, 22127.620
474.64, 21413.220
474.84, 21745.332
475.04, 21831.688
475.25, 21692.085
475.45, 21668.192
475.65, 21121.726
475.85, 21345.978
476.06, 21514.253
476.26, 21056.873
476.46, 21255.868
476.67, 21433.358
476.87, 21363.045
477.07, 21248.700
477.28, 21068.820
477.48, 21563.404
477.68, 21622.454
477.88, 21185.554
478.09, 21591.052
478.29, 21597.878
478.49, 22315.691
478.70, 21576.375
478.90, 22045.360
479.10, 22266.882
479.30, 22728.699
479.51, 22116.697
479.71, 22000.646
479.91, 23096.992
480.11, 23091.872
480.32, 23056.715
480.52, 23333.191
480.72, 23270.728
480.93, 23685.783
481.13, 23235.229
481.33, 23900.819
481.53, 24300.173
481.74, 24485.856
481.94, 24324.066
482.14, 23913.107
482.34, 24636.723
482.55, 24595.422
482.75, 24564.702
482.95, 24150.671
483.15, 24801.584
483.36, 24205.625
483.56, 25044.951
483.76, 24205.967
483.96, 24577.332
484.17, 24589.961
484.37, 24083.089
484.57, 24199.140
484.77, 24416.566
484.98, 24362.295
485.18, 23869.076
485.38, 23859.519
485.58, 24316.898
485.79, 23855.423
485.99, 23517.166
486.19, 23592.259
486.39, 24296.077
486.59, 23527.748
486.80, 23530.478
487.00, 23172.766
487.20, 23854.740
487.40, 23703.190
487.61, 23730.497
487.81, 23329.436
488.01, 23711.041
488.21, 23917.886
488.41, 23628.781
488.62, 23669.058
488.82, 23477.231
489.02, 24040.764
489.22, 23781.696
489.43, 23921.982
489.63, 24336.695
489.83, 24142.821
490.03, 24031.548
490.23, 24104.934
490.44, 24782.811
490.64, 24576.990
490.84, 24868.485
491.04, 25053.143
491.24, 25108.438
491.45, 25530.320
491.65, 25271.252
491.85, 25126.870
492.05, 26066.888
492.25, 25610.191
492.45, 25536.122
492.66, 25142.912
492.86, 25535.098
493.06, 25768.225
493.26, 25401.980
493.46, 25202.645
493.67, 25996.915
493.87, 25152.128
494.07, 25105.708
494.27, 24708.402
494.47, 24913.881
494.67, 24951.769
494.88, 24555.145
495.08, 24437.728
495.28, 24577.332
495.48, 24359.564
495.68, 24016.188
495.89, 23847.231
496.09, 24057.489
496.29, 23892.969
496.49, 23980.349
496.69, 23732.203
496.89, 23584.749
497.09, 24023.356
497.30, 23388.144
497.50, 23527.406
497.70, 23705.921
497.90, 23940.072
498.10, 23313.394
498.30, 23728.790
498.51, 23201.438
498.71, 23398.384
498.91, 23035.211
499.11, 23277.895
499.31, 23372.785
499.51, 23584.408
499.71, 23137.610
499.92, 22838.948
500.12, 23144.095
500.32, 23033.505
500.52, 23134.879
500.72, 22693.883
500.92, 23196.318
501.12, 23189.833
501.32, 22430.036
501.53, 22828.708
501.73, 23121.567
501.93, 23213.043
502.13, 22564.178
502.33, 22510.590
502.53, 22988.791
502.73, 23086.410
502.93, 22632.444
503.14, 22804.473
503.34, 22863.864
503.54, 22764.197
503.74, 22785.700
503.94, 22499.326
504.14, 23077.877
504.34, 22872.739
504.54, 22779.215
504.74, 22506.835
504.95, 22738.256
505.15, 23327.729
505.35, 22332.417
505.55, 22677.499
505.75, 22703.440
505.95, 22749.178
506.15, 22542.333
506.35, 22477.822
506.55, 22564.861
506.75, 22747.813
506.95, 22334.806
507.16, 22359.723
507.36, 22571.346
507.56, 22626.641
507.76, 22392.149
507.96, 22267.906
508.16, 22283.948
508.36, 22449.833
508.56, 22176.088
508.76, 22466.900
508.96, 22524.243
509.16, 22778.532
509.36, 22166.190
509.57, 22195.885
509.77, 22238.893
509.97, 22343.339
510.17, 22150.830
510.37, 22432.426
510.57, 22335.147
510.77, 22188.035
510.97, 22321.494
511.17, 22262.444
511.37, 22907.896
511.57, 22749.520
511.77, 22417.066
511.97, 22365.525
512.17, 22858.403
512.37, 22861.816
512.57, 22383.274
512.78, 22376.448
512.98, 22638.588
513.18, 22642.342
513.38, 22417.749
513.58, 22739.621
513.78, 23067.637
513.98, 22892.195
514.18, 22787.748
514.38, 22446.079
514.58, 22506.153
514.78, 22796.281
514.98, 22693.542
515.18, 22620.497
515.38, 23007.564
515.58, 22818.126
515.78, 22725.285
515.98, 22694.224
516.18, 23158.089
516.38, 23236.595
516.58, 22909.944
516.78, 22548.477
516.98, 22821.881
517.18, 23221.918
517.38, 22918.818
517.58, 23071.733
517.78, 23082.656
517.98, 23622.637
518.18, 23024.289
518.38, 23141.364
518.58, 23636.290
518.78, 23160.820
518.98, 23150.239
519.18, 23166.964
519.38, 23393.264
519.58, 23473.135
519.78, 23245.128
519.98, 23352.305
520.18, 23495.663
520.38, 23567.683
520.58, 23427.739
520.78, 23147.508
520.98, 23649.602
521.18, 23526.382
521.38, 23555.737
521.58, 23274.482
521.78, 23672.129
521.98, 23487.130
522.18, 23218.504
522.38, 23565.294
522.58, 23116.789
522.78, 23636.973
522.98, 23500.783
523.18, 23168.329
523.38, 23575.875
523.58, 23452.655
523.78, 23062.859
523.98, 23344.113
524.18, 23637.997
524.38, 23563.587
524.58, 23409.307
524.78, 23273.800
524.98, 23705.238
525.18, 23571.096
525.38, 23550.958
525.58, 23473.135
525.78, 23906.281
525.98, 23700.460
526.18, 23487.471
526.38, 23326.364
526.58, 23749.611
526.78, 23470.063
526.98, 23665.303
527.17, 23228.403
527.37, 23608.301
527.57, 23569.390
527.77, 23278.578
527.97, 23352.646
528.17, 23519.556
528.37, 23519.897
528.57, 23424.325
528.77, 23425.349
528.97, 23833.919
529.17, 23622.296
529.37, 23454.362
529.57, 23076.853
529.77, 23376.198
529.97, 23733.569
530.17, 23384.049
530.36, 23308.615
530.56, 23472.794
530.76, 23303.495
530.96, 23204.851
531.16, 23195.294
531.36, 23442.074
531.56, 23652.332
531.76, 22810.959
531.96, 22832.804
532.16, 23266.632
532.36, 22925.304
532.56, 23063.541
532.76, 22884.344
532.95, 22964.898
533.15, 23162.527
533.35, 22912.674
533.55, 22662.140
533.75, 23490.543
533.95, 22792.868
534.15, 22693.883
534.35, 22538.579
534.55, 23018.827
534.75, 22773.071
534.94, 22531.752
535.14, 22564.520
535.34, 22630.396
535.54, 22494.206
535.74, 22673.745
535.94, 22288.727
536.14, 22723.237
536.34, 22982.305
536.54, 22596.946
536.73, 22262.444
536.93, 22684.667
537.13, 22878.200
537.33, 22602.407
537.53, 22185.304
537.73, 22376.107
537.93, 22228.311
538.13, 22729.722
538.32, 22163.459
538.52, 22339.584
538.72, 22213.293
538.92, 22063.109
539.12, 22031.365
539.32, 22578.514
539.52, 22423.210
539.72, 22327.297
539.91, 22005.083
540.11, 22261.079
540.31, 22291.116
540.51, 22029.317
540.71, 22196.568
540.91, 22383.957
541.11, 22133.422
541.30, 21924.188
541.50, 21805.747
541.70, 21849.096
541.90, 21929.649
542.10, 21610.849
542.30, 21711.199
542.49, 22039.557
542.69, 21936.476
542.89, 21477.390
543.09, 21822.472
543.29, 22217.730
543.49, 22201.688
543.68, 21796.190
543.88, 21701.642
544.08, 21923.164
544.28, 21844.317
544.48, 21935.793
544.68, 21468.174
544.87, 21991.771
545.07, 21672.288
545.27, 21441.550
545.47, 21517.325
545.67, 21661.024
545.87, 21579.105
546.06, 21405.028
546.26, 21258.598
546.46, 21748.404
546.66, 21587.297
546.86, 21616.310
547.05, 21395.471
547.25, 21741.919
547.45, 21927.260
547.65, 21279.419
547.85, 20943.894
548.04, 21706.421
548.24, 21470.563
548.44, 21179.069
548.64, 21158.248
548.84, 21665.461
549.03, 20988.608
549.23, 21081.449
549.43, 21122.408
549.63, 21369.189
549.83, 21287.611
550.02, 21182.141
550.22, 21179.410
550.42, 21258.940
550.62, 21334.373
550.82, 20900.204
551.01, 21021.375
551.21, 21378.063
551.41, 21604.022
551.61, 20701.209
551.80, 21090.665
552.00, 20992.362
552.20, 21222.759
552.40, 20873.580
552.60, 21009.429
552.79, 21213.543
552.99, 21222.418
553.19, 20887.233
553.39, 20719.300
553.58, 21154.835
553.78, 20751.726
553.98, 20868.460
554.18, 20682.436
554.37, 20683.119
554.57, 20693.700
554.77, 20821.016
554.97, 20751.385
555.16, 20922.390
555.36, 21317.989
555.56, 20597.446
555.76, 20457.501
555.95, 21171.901
556.15, 20848.322
556.35, 20647.621
556.55, 20391.284
556.74, 20387.188
556.94, 20545.222
557.14, 20310.047
557.34, 20406.985
557.53, 20737.732
557.73, 20728.857
557.93, 20267.723
558.13, 20256.118
558.32, 20579.697
558.52, 20525.767
558.72, 20159.863
558.92, 20296.736
559.11, 20480.029
559.31, 20367.391
559.51, 20212.086
559.70, 20208.673
559.90, 20241.440
560.10, 20074.872
560.30, 19994.319
560.49, 20198.092
560.69, 20062.243
560.89, 20383.092
561.08, 19875.878
561.28, 19840.721
561.48, 20237.345
561.68, 20210.721
561.87, 19912.400
562.07, 19820.583
562.27, 20027.769
562.46, 20073.507
562.66, 19924.688
562.86, 19541.718
563.05, 19989.540
563.25, 19730.131
563.45, 19520.214
563.65, 19699.753
563.84, 20072.142
564.04, 19758.120
564.24, 19666.985
564.43, 19709.993
564.63, 19967.013
564.83, 19842.428
565.02, 19517.142
565.22, 19471.404
565.42, 19588.821
565.61, 19694.633
565.81, 19453.996
566.01, 19474.135
566.20, 19708.627
566.40, 19411.330
566.60, 19416.792
566.79, 19280.260
566.99, 19855.740
567.19, 19636.266
567.38, 19500.076
567.58, 19333.849
567.78, 19595.306
567.97, 19375.491
568.17, 19120.860
568.37, 19239.984
568.56, 19874.513
568.76, 19480.961
568.96, 19347.161
569.15, 19240.666
569.35, 20700.185
569.55, 19764.946
569.74, 19189.809
569.94, 19203.462
570.14, 19578.581
570.33, 19401.091
570.53, 18853.600
570.73, 19075.805
570.92, 19102.770
571.12, 19181.617
571.31, 18773.730
571.51, 18913.674
571.71, 19264.901
571.90, 19400.067
572.10, 18736.525
572.30, 18844.726
572.49, 19368.664
572.69, 19256.709
572.88, 18968.969
573.08, 18667.576
573.28, 19494.615
573.47, 19080.925
573.67, 18544.698
573.87, 18697.272
574.06, 18951.561
574.26, 19160.796
574.45, 18638.905
574.65, 18431.036
574.85, 19057.715
575.04, 18805.814
575.24, 18747.447
575.44, 18564.837
575.63, 19020.510
575.83, 18603.065
576.02, 18545.381
576.22, 18648.803
576.42, 18928.010
576.61, 18897.973
576.81, 18504.422
577.00, 18602.383
577.20, 18756.663
577.40, 19046.109
577.59, 18415.335
577.79, 18574.394
577.98, 18831.073
578.18, 18578.831
578.37, 18615.353
578.57, 18280.510
578.77, 18452.881
578.96, 18249.450
579.16, 18199.616
579.35, 18060.012
579.55, 18542.650
579.75, 18233.748
579.94, 18417.724
580.14, 18073.666
580.33, 18856.331
580.53, 18394.855
580.72, 17998.232
580.92, 18279.486
581.12, 18245.354
581.31, 18631.054
581.51, 18290.068
581.70, 18182.891
581.90, 18976.478
582.09, 18251.156
582.29, 17923.822
582.48, 18110.188
582.68, 18538.896
582.88, 18511.590
583.07, 17938.841
583.27, 17790.022
583.46, 18274.708
583.66, 18396.221
583.85, 18056.940
584.05, 17977.411
584.24, 18659.726
584.44, 18340.584
584.63, 17834.395
584.83, 17829.616
585.03, 18265.833
585.22, 17958.979
585.42, 17609.459
585.61, 17773.297
585.81, 18110.870
586.00, 17890.372
586.20, 17664.072
586.39, 17515.935
586.59, 17790.705
586.78, 17714.247
586.98, 17688.647
587.17, 17704.349
587.37, 17933.721
587.56, 18222.485
587.76, 17564.063
587.95, 17654.856
588.15, 17714.247
588.34, 17976.046
588.54, 17448.011
588.74, 17584.884
588.93, 17671.240
589.13, 17881.839
589.32, 17456.203
589.52, 17206.351
589.71, 17897.199
589.91, 17722.439
590.10, 17371.212
590.30, 17264.377
590.49, 17613.897
590.69, 17610.483
590.88, 17284.856
591.08, 17070.502
591.27, 17458.251
591.47, 17209.764
591.66, 17156.517
591.85, 17062.993
592.05, 17502.965
592.24, 17411.489
592.44, 16879.358
592.63, 16768.768
592.83, 17440.161
593.02, 17208.399
593.22, 16881.406
593.41, 16767.744
593.61, 17121.019
593.80, 17737.457
594.00, 16921.000
594.19, 16803.584
594.39, 17044.903
594.58, 16983.122
594.78, 16646.231
594.97, 16725.761
595.17, 16960.936
595.36, 16910.761
595.56, 16564.313
595.75, 16534.958
595.94, 17057.190
596.14, 17000.189
596.33, 16487.855
596.53, 16416.518
596.72, 16860.927
596.92, 16672.514
597.11, 16417.541
597.31, 16812.117
597.50, 16961.619
597.69, 17059.238
597.89, 16593.667
598.08, 16373.510
598.28, 16908.030
598.47, 16672.514
598.67, 16450.650
598.86, 16321.970
599.06, 16847.956
599.25, 16368.049
599.44, 16219.571
599.64, 16276.573
599.83, 16584.451
600.03, 16383.409
600.22, 16114.101
600.42, 16224.008
600.61, 16396.379
600.80, 16219.571
601.00, 16256.093
601.19, 16006.582
601.39, 16490.927
601.58, 16041.739
601.78, 16009.313
601.97, 15852.985
602.16, 16116.149
602.36, 15972.108
602.55, 15938.317
602.75, 15527.016
602.94, 15999.073
603.13, 16226.398
603.33, 15407.552
603.52, 15603.474
603.72, 16027.403
603.91, 15594.258
604.10, 15524.968
604.30, 15368.640
604.49, 15638.972
604.69, 15462.164
604.88, 15121.519
605.07, 15415.402
605.27, 15461.481
605.46, 15341.675
605.66, 15270.338
605.85, 15079.535
606.04, 15559.443
606.24, 15597.671
606.43, 14866.888
606.62, 14945.735
606.82, 15314.369
607.01, 15433.834
607.21, 14875.080
607.40, 15007.856
607.59, 15254.978
607.79, 14892.146
607.98, 14997.616
608.17, 14729.674
608.37, 15198.317
608.56, 15623.954
608.76, 14587.681
608.95, 14646.731
609.14, 15281.943
609.34, 15056.666
609.53, 14739.914
609.72, 14592.460
609.92, 15028.336
610.11, 14982.257
610.30, 14650.144
610.50, 14543.991
610.69, 14571.639
610.88, 15038.235
611.08, 14620.790
611.27, 14518.392
611.46, 15065.882
611.66, 14725.919
611.85, 14541.602
612.04, 14662.774
612.24, 15048.816
612.43, 14795.209
612.62, 14538.530
612.82, 14508.152
613.01, 14913.650
613.20, 14988.742
613.40, 14804.766
613.59, 14519.074
613.78, 15190.467
613.98, 14685.301
614.17, 14720.458
614.36, 14832.755
614.56, 16043.787
614.75, 15056.666
614.94, 14872.690
615.14, 14869.960
615.33, 15507.219
615.52, 15387.413
615.72, 14932.764
615.91, 14930.034
616.10, 15270.679
616.30, 15300.716
616.49, 15034.139
616.68, 15020.485
616.88, 15656.380
617.07, 15676.859
617.26, 14984.305
617.45, 15148.825
617.65, 15883.363
617.84, 15202.755
618.03, 15019.803
618.23, 15208.557
618.42, 15491.860
618.61, 15357.376
618.80, 15221.528
619.00, 15177.838
619.19, 15762.874
619.38, 15707.238
619.58, 15295.255
619.77, 15464.553
619.96, 15910.328
620.15, 15557.395
620.35, 15361.472
620.54, 15376.491
620.73, 15613.372
620.93, 15762.191
621.12, 15391.850
621.31, 15425.983
621.50, 15450.559
621.70, 16111.029
621.89, 15236.887
622.08, 15059.738
622.27, 15765.605
622.47, 15676.177
622.66, 15152.238
622.85, 15316.417
623.04, 15507.902
623.24, 15331.435
623.43, 15204.461
623.62, 15055.301
623.81, 15489.812
624.01, 15553.981
624.20, 15073.733
624.39, 15160.771
624.58, 15276.823
624.78, 15340.993
624.97, 14921.159
625.16, 14811.934
625.35, 15218.797
625.55, 15552.275
625.74, 15054.960
625.93, 15047.109
626.12, 15099.332
626.32, 15088.410
626.51, 14846.408
626.70, 14783.604
626.89, 15087.044
627.09, 15089.092
627.28, 14746.740
627.47, 14923.890
627.66, 15524.286
627.85, 15225.282
628.05, 14724.895
628.24, 14819.785
628.43, 15267.607
628.62, 15248.151
628.82, 14596.897
629.01, 14682.229
629.20, 14978.502
629.39, 14949.831
629.58, 14406.095
629.78, 14530.680
629.97, 14915.015
630.16, 14749.812
630.35, 14554.573
630.54, 14498.595
630.74, 14572.663
630.93, 14559.010
631.12, 14323.152
631.31, 14145.661
631.50, 14720.799
631.70, 14806.131
631.89, 14173.309
632.08, 14320.421
632.27, 14251.473
632.46, 14726.943
632.65, 14273.660
632.85, 14021.077
633.04, 14422.137
633.23, 14648.438
633.42, 13983.531
633.61, 13996.501
633.81, 14394.148
634.00, 14277.755
634.19, 14011.861
634.38, 13990.699
634.57, 13953.835
634.76, 13902.977
634.96, 13664.730
635.15, 13664.389
635.34, 13987.968
635.53, 13983.872
635.72, 13666.095
635.91, 13401.908
636.11, 13945.643
636.30, 13827.885
636.49, 13541.852
636.68, 13352.415
636.87, 13494.407
637.06, 14132.350
637.26, 13364.361
637.45, 13275.957
637.64, 13553.457
637.83, 13571.206
638.02, 13110.413
638.21, 13229.537
638.40, 13841.538
638.60, 13805.016
638.79, 13102.563
638.98, 12947.941
639.17, 13489.629
639.36, 13116.899
639.55, 12906.982
639.74, 12845.543
639.93, 13146.935
640.13, 13152.738
640.32, 12731.539
640.51, 12708.329
640.70, 13205.985
640.89, 13057.507
641.08, 12691.604
641.27, 12544.150
641.46, 13004.602
641.66, 13018.937
641.85, 12542.102
642.04, 12362.222
642.23, 12904.592
642.42, 12669.417
642.61, 12427.757
642.80, 12289.860
642.99, 12684.777
643.18, 13022.692
643.38, 12447.554
643.57, 12464.620
643.76, 12645.524
643.95, 12912.443
644.14, 12543.126
644.33, 12435.608
644.52, 13077.987
644.71, 12699.113
644.90, 12383.384
645.09, 12358.126
645.29, 12703.209
645.48, 12610.026
645.67, 12464.279
645.86, 12440.045
646.05, 12707.305
646.24, 12928.827
646.43, 12278.597
646.62, 12363.246
646.81, 12529.473
647.00, 12602.176
647.19, 12169.713
647.38, 12298.394
647.57, 12624.362
647.77, 12648.596
647.96, 12263.920
648.15, 12152.305
648.34, 12772.157
648.53, 12831.890
648.72, 12262.554
648.91, 12379.288
649.10, 12698.772
649.29, 12231.152
649.48, 12088.818
649.67, 12083.698
649.86, 12817.554
650.05, 12170.054
650.24, 11985.737
650.43, 12275.183
650.62, 12294.980
650.81, 12549.270
651.01, 11852.278
651.20, 11887.776
651.39, 12240.709
651.58, 12441.069
651.77, 11713.357
651.96, 11756.365
652.15, 12083.698
652.34, 11915.082
652.53, 11793.911
652.72, 11617.103
652.91, 12176.881
653.10, 11956.042
653.29, 11439.612
653.48, 11377.149
653.67, 11832.139
653.86, 11731.789
654.05, 11303.764
654.24, 11216.384
654.43, 11657.379
654.62, 11448.828
654.81, 11260.756
655.00, 11257.684
655.19, 11452.583
655.38, 11567.951
655.57, 11107.159
655.76, 11120.812
655.95, 11562.149
656.14, 11327.998
656.33, 11214.677
656.52, 11158.699
656.71, 11235.498
656.90, 11254.271
657.09, 11012.952
657.28, 10933.422
657.47, 11327.656
657.66, 11500.710
657.85, 10811.227
658.04, 11077.804
658.23, 11132.758
658.42, 11507.878
658.61, 10930.009
658.80, 10768.220
658.99, 11306.153
659.18, 11707.896
659.37, 10851.504
659.56, 10907.482
659.75, 11290.110
659.94, 11155.286
660.13, 10741.937
660.32, 10970.627
660.51, 11224.234
660.70, 11180.544
660.89, 10896.218
661.08, 10732.380
661.27, 11260.074
661.46, 11034.456
661.65, 10824.539
661.84, 10918.404
662.03, 11060.397
662.22, 11175.765
662.41, 10703.367
662.60, 10508.128
662.78, 10901.338
662.97, 11101.015
663.16, 10642.952
663.35, 10629.640
663.54, 10969.262
663.73, 11087.020
663.92, 10514.954
664.11, 10636.808
664.30, 10820.443
664.49, 11041.965
664.68, 10499.594
664.87, 10550.794
665.06, 10915.332
665.25, 10818.736
665.44, 10525.194
665.63, 10430.646
665.82, 10904.410
666.01, 11185.323
666.19, 10516.320
666.38, 10618.377
666.57, 11160.064
666.76, 10725.212
666.95, 10594.825
667.14, 10335.757
667.33, 10746.375
667.52, 10998.957
667.71, 10447.030
667.90, 10556.596
668.09, 10869.935
668.28, 10574.004
668.46, 10301.965
668.65, 10391.052
668.84, 11051.522
669.03, 10434.742
669.22, 10330.637
669.41, 10458.294
669.60, 11146.753
669.79, 10493.792
669.98, 10383.884
670.17, 10225.167
670.35, 10679.474
670.54, 10524.853
670.73, 10274.318
670.92, 10265.443
671.11, 10552.842
671.30, 10110.822
671.49, 10129.253
671.68, 10004.327
671.87, 10598.580
672.05, 10588.681
672.24, 10017.639
672.43, 10123.110
672.62, 10387.639
672.81, 10520.757
673.00, 10080.444
673.19, 9869.844
673.38, 10215.951
673.57, 10275.001
673.75, 10170.895
673.94, 9936.403
674.13, 10349.410
674.32, 10151.781
674.51, 9940.840
674.70, 9871.209
674.89, 9921.385
675.07, 10293.091
675.26, 10150.416
675.45, 9988.285
675.64, 10275.001
675.83, 10299.235
676.02, 9919.678
676.21, 10017.639
676.39, 10114.918
676.58, 9861.994
676.77, 9610.093
676.96, 9706.348
677.15, 10048.017
677.34, 10344.290
677.52, 9798.165
677.71, 9649.346
677.90, 10073.617
678.09, 10092.049
678.28, 9707.713
678.47, 9819.669
678.65, 10043.921
678.84, 10294.456
679.03, 9619.651
679.22, 9596.099
679.41, 9861.994
679.60, 9957.224
679.78, 9690.988
679.97, 9645.591
680.16, 10225.167
680.35, 10157.242
680.54, 9891.689
680.73, 9562.990
680.91, 10034.023
681.10, 10174.309
681.29, 9821.034
681.48, 9654.125
681.67, 10210.831
681.85, 9971.560
682.04, 9771.200
682.23, 9763.008
682.42, 10010.471
682.61, 9853.119
682.79, 9874.281
682.98, 9998.183
683.17, 10121.744
683.36, 10059.964
683.55, 9866.089
683.73, 9977.021
683.92, 10117.648
684.11, 10202.980
684.30, 10042.215
684.49, 9946.302
684.67, 10253.156
684.86, 10092.049
685.05, 9731.606
685.24, 9904.660
685.42, 10507.786
685.61, 10206.394
685.80, 9907.049
685.99, 9952.445
686.18, 10116.624
686.36, 10053.479
686.55, 10076.348
686.74, 9905.001
686.93, 10123.110
687.11, 10249.060
687.30, 9625.453
687.49, 9656.855
687.68, 10090.683
687.86, 10012.178
688.05, 9702.252
688.24, 9758.230
688.43, 10314.936
688.61, 10004.669
688.80, 9574.254
688.99, 9464.688
689.18, 10067.814
689.36, 9974.632
689.55, 9518.959
689.74, 9241.459
689.93, 9894.420
690.11, 9751.745
690.30, 9433.285
690.49, 9387.889
690.68, 9990.333
690.86, 9517.593
691.05, 9144.522
691.24, 9149.642
691.43, 9467.760
691.61, 9724.438
691.80, 9002.188
691.99, 8963.277
692.17, 9455.130
692.36, 9271.837
692.55, 9103.221
692.74, 8670.076
692.92, 9129.162
693.11, 9074.891
693.30, 8953.037
693.49, 8751.312
693.67, 8963.959
693.86, 9021.985
694.05, 8733.904
694.23, 8679.292
694.42, 9148.618
694.61, 8747.899
694.79, 8509.651
694.98, 8448.895
695.17, 8960.546
695.36, 8441.386
695.54, 8558.120
695.73, 8368.000
695.92, 8850.297
696.10, 8910.712
696.29, 8290.178
696.48, 8548.904
696.66, 9174.559
696.85, 8484.393
697.04, 8266.626
697.22, 8291.884
697.41, 8919.587
697.60, 8459.476
697.79, 8203.139
697.97, 8179.587
698.16, 8775.887
698.35, 8490.878
698.53, 8161.838
698.72, 8057.050
698.91, 8833.231
699.09, 8442.751
699.28, 8227.032
699.47, 8157.401
699.65, 8268.332
699.84, 8613.415
700.03, 8086.405
700.21, 8005.851
700.40, 8112.346
700.59, 8256.727
700.77, 7943.388
700.96, 7892.872
701.15, 8427.733
701.33, 8296.663
701.52, 7746.783
701.70, 7891.165
701.89, 8402.474
702.08, 7971.377
702.26, 7691.829
702.45, 7651.894
702.64, 7821.193
702.82, 8080.602
703.01, 7849.864
703.20, 7745.759
703.38, 8409.984
703.57, 7831.774
703.76, 7761.460
703.94, 7756.682
704.13, 7934.855
704.31, 7706.848
704.50, 7873.757
704.69, 7807.881
704.87, 7926.322
705.06, 7932.807
705.25, 7759.071
705.43, 7587.724
705.62, 8027.014
705.80, 8091.866
705.99, 7760.436
706.18, 7594.892
706.36, 7891.506
706.55, 7846.792
706.73, 7649.505
706.92, 7586.018
707.11, 8047.152
707.29, 8042.032
707.48, 7752.244
707.66, 7623.222
707.85, 7781.940
708.04, 7894.578
708.22, 7620.492
708.41, 7632.780
708.59, 8088.794
708.78, 7940.999
708.97, 7404.431
709.15, 7659.744
709.34, 8077.871
709.52, 7888.093
709.71, 7604.791
709.90, 7521.848
710.08, 8184.707
710.27, 7660.768
710.45, 7672.374
710.64, 7639.265
710.82, 8131.119
711.01, 7937.927
711.20, 7772.724
711.38, 7596.257
711.57, 8014.043
711.75, 7670.326
711.94, 7824.947
712.12, 7821.193
712.31, 7936.903
712.50, 8147.844
712.68, 7664.182
712.87, 7852.595
713.05, 8053.978
713.24, 7780.575
713.42, 7606.839
713.61, 7619.809
713.79, 8096.303
713.98, 7823.923
714.17, 7650.870
714.35, 7613.665
714.54, 7892.872
714.72, 7794.569
714.91, 7570.999
715.09, 7660.427
715.28, 7683.296
715.46, 8141.700
715.65, 7370.981
715.83, 7450.852
716.02, 7909.597
716.21, 7807.881
716.39, 7396.580
716.58, 7205.437
716.76, 7617.761
716.95, 7724.255
717.13, 7156.627
717.32, 7038.186
717.50, 7857.032
717.69, 7519.117
717.87, 7022.826
718.06, 6977.430
718.24, 7248.785
718.43, 7408.527
718.61, 7028.629
718.80, 6993.131
718.98, 7336.165
719.17, 7227.623
719.35, 6939.542
719.54, 6922.817
719.72, 7059.007
719.91, 7255.271
720.09, 6752.494
720.28, 6885.612
720.46, 7090.068
720.65, 7418.084
720.83, 6678.767
721.02, 6816.664
721.20, 7223.868
721.39, 6963.776
721.57, 6659.994
721.76, 6900.289
721.94, 7011.221
722.13, 6958.656
722.31, 6797.891
722.50, 6749.764
722.68, 6918.721
722.87, 7200.658
723.05, 6648.048
723.24, 7269.606
723.42, 6786.968
723.61, 7258.343
723.79, 6527.218
723.98, 6527.218
724.16, 7267.217
724.34, 6764.099
724.53, 6716.655
724.71, 6734.745
724.90, 6817.005
725.08, 7000.640
725.27, 6571.932
725.45, 6594.801
725.64, 6781.849
725.82, 7259.025
726.01, 6428.915
726.19, 6543.943
726.38, 6917.697
726.56, 6777.411
726.74, 6742.596
726.93, 6616.646
727.11, 7548.813
727.30, 6949.782
727.48, 6719.727
727.67, 6749.764
727.85, 7068.223
728.04, 7236.156
728.22, 6731.332
728.40, 6786.968
728.59, 7067.881
728.77, 7106.793
728.96, 6675.013
729.14, 6751.129
729.33, 7638.582
729.51, 7195.538
729.69, 6969.579
729.88, 6793.112
730.06, 7171.987
730.25, 7148.094
730.43, 6875.031
730.61, 6860.695
730.80, 7211.581
730.98, 7497.614
731.17, 6968.555
731.35, 6884.930
731.54, 7161.747
731.72, 7468.601
731.90, 6874.690
732.09, 7018.730
732.27, 7453.241
732.46, 7490.787
732.64, 6911.553
732.82, 6909.164
733.01, 7301.009
733.19, 7334.117
733.38, 6656.922
733.56, 6929.644
733.74, 7303.739
733.93, 7320.123
734.11, 6887.660
734.29, 6770.926
734.48, 7170.280
734.66, 7037.162
734.85, 6653.509
735.03, 6663.066
735.21, 6931.350
735.40, 7264.145
735.58, 6658.288
735.77, 6558.620
735.95, 7076.415
736.13, 6805.059
736.32, 6454.174
736.50, 6505.031
736.68, 6629.275
736.87, 6972.651
737.05, 6424.137
737.23, 6454.856
737.42, 6779.801
737.60, 6736.111
737.79, 6421.065
737.97, 6324.469
738.15, 6834.072
738.34, 6656.581
738.52, 6331.978
738.70, 6482.504
738.89, 6872.300
739.07, 6608.112
739.25, 6516.637
739.44, 6362.356
739.62, 6944.321
739.80, 6474.653
739.99, 6217.292
740.17, 6396.489
740.35, 7025.557
740.54, 6741.230
740.72, 6295.797
740.90, 6240.502
741.09, 6436.766
741.27, 6601.286
741.45, 6311.157
741.64, 6181.111
741.82, 6671.258
742.00, 6481.480
742.19, 6263.030
742.37, 6244.598
742.55, 6431.646
742.74, 6463.731
742.92, 6103.971
743.10, 6234.358
743.29, 6597.873
743.47, 6574.662
743.65, 6016.250
743.83, 6192.375
744.02, 6368.159
744.20, 6214.902
744.38, 5893.713
744.57, 5940.816
744.75, 6166.093
744.93, 6224.801
745.12, 6012.836
745.30, 5915.558
745.48, 6737.135
745.66, 5984.506
745.85, 5797.458
746.03, 5801.213
746.21, 6299.893
746.40, 6113.869
746.58, 5877.329
746.76, 5725.779
746.94, 6298.187
747.13, 6185.548
747.31, 5665.023
747.49, 5816.914
747.68, 6117.624
747.86, 6238.113
748.04, 5656.490
748.22, 5623.381
748.41, 6225.484
748.59, 6291.360
748.77, 5607.338
748.95, 5766.739
749.14, 5931.600
749.32, 6039.119
749.50, 5618.261
749.68, 5529.174
749.87, 5915.558
750.05, 5943.547
750.23, 5645.909
750.42, 5712.809
750.60, 5905.659
750.78, 5951.056
750.96, 5751.379
751.15, 5738.750
751.33, 5735.336
751.51, 6131.618
751.69, 5680.724
751.87, 5599.829
752.06, 5709.737
752.24, 5904.294
752.42, 5525.761
752.60, 5523.372
752.79, 6161.997
752.97, 6051.748
753.15, 5553.067
753.33, 5615.872
753.52, 5860.263
753.70, 5911.120
753.88, 5565.696
754.06, 5617.237
754.24, 5780.050
754.43, 6187.938
754.61, 5527.809
754.79, 5504.257
754.97, 5740.798
755.16, 6033.316
755.34, 5595.392
755.52, 5680.383
755.70, 5918.288
755.88, 5691.988
756.07, 5578.326
756.25, 5552.726
756.43, 5980.069
756.61, 5719.977
756.79, 5633.279
756.98, 5520.300
757.16, 5955.493
757.34, 5733.630
757.52, 5603.242
757.70, 5652.735
757.89, 6114.893
758.07, 6432.329
758.25, 5716.222
758.43, 5644.202
758.61, 6114.552
758.80, 6166.434
758.98, 5865.041
759.16, 5775.613
759.34, 6322.080
759.52, 6086.222
759.70, 5895.419
759.89, 5896.443
760.07, 6185.548
760.25, 6250.059
760.43, 5825.106
760.61, 6002.596
760.79, 6347.679
760.98, 6362.015
761.16, 6237.089
761.34, 6412.873
761.52, 6418.675
761.70, 6826.904
761.88, 6630.640
762.07, 6707.098
762.25, 7449.828
762.43, 7225.575
762.61, 7062.420
762.79, 7155.944
762.97, 7567.586
763.15, 7545.400
763.34, 7393.850
763.52, 7545.400
763.70, 8191.875
763.88, 8213.720
764.06, 7893.896
764.24, 7712.992
764.42, 8301.783
764.61, 8112.346
764.79, 7750.196
764.97, 7948.167
765.15, 8051.589
765.33, 8378.923
765.51, 7787.401
765.69, 7921.884
765.87, 8081.967
766.06, 7972.060
766.24, 7339.579
766.42, 7154.237
766.60, 7433.444
766.78, 7522.189
766.96, 6978.795
767.14, 6729.967
767.32, 7106.452
767.50, 6625.520
767.69, 6419.017
767.87, 6401.950
768.05, 6736.452
768.23, 6329.930
768.41, 6224.801
768.59, 5906.342
768.77, 6251.425
768.95, 6158.925
769.13, 5715.881
769.32, 5707.006
769.50, 6078.030
769.68, 6015.226
769.86, 5656.490
770.04, 5459.885
770.22, 5534.977
770.40, 5771.517
770.58, 5347.246
770.76, 5357.486
770.94, 5855.143
771.12, 5458.178
771.30, 5229.830
771.49, 5414.829
771.67, 5661.610
771.85, 5590.613
772.03, 5224.368
772.21, 5224.368
772.39, 5454.765
772.57, 5648.298
772.75, 5011.380
772.93, 5165.660
773.11, 5604.266
773.29, 5441.453
773.47, 5013.428
773.65, 5099.442
773.83, 5543.510
774.01, 5125.383
774.19, 4990.559
774.38, 5078.280
774.56, 5408.685
774.74, 5310.042
774.92, 4783.031
775.10, 4793.612
775.28, 4925.706
775.46, 5438.381
775.64, 4603.492
775.82, 4699.406
776.00, 4743.778
776.18, 4883.040
776.36, 4577.893
776.54, 4826.721
776.72, 4928.437
776.90, 4976.223
777.08, 4625.679
777.26, 4595.301
777.44, 4865.291
777.62, 5003.529
777.80, 4589.157
777.98, 4550.928
778.16, 4746.168
778.34, 4932.874
778.52, 4690.190
778.70, 4516.795
778.88, 4774.839
779.06, 4612.708
779.24, 4472.081
779.42, 4583.354
779.60, 5001.140
779.78, 4841.057
779.96, 4353.640
780.14, 4489.489
780.32, 4784.055
780.50, 4919.562
780.68, 4416.103
780.86, 4401.085
781.04, 4777.228
781.22, 4609.978
781.40, 4483.345
781.58, 4342.376
781.76, 4686.776
781.94, 4798.049
782.12, 4433.170
782.30, 4541.712
782.48, 4746.850
782.66, 4714.765
782.84, 4424.978
783.02, 4404.839
783.20, 4756.407
783.38, 4814.775
783.56, 4223.594
783.74, 4215.061
783.92, 4571.749
784.10, 4709.645
784.28, 4347.496
784.46, 4316.777
784.64, 4611.684
784.82, 4611.002
785.00, 4169.664
785.18, 4133.142
785.36, 4765.282
785.54, 4273.087
785.72, 4221.546
785.90, 4225.301
786.08, 4360.467
786.26, 4474.470
786.43, 4255.338
786.61, 4230.762
786.79, 4833.889
786.97, 4855.393
787.15, 4267.967
787.33, 4208.576
787.51, 4446.140
787.69, 4773.815
787.87, 4227.349
788.05, 4254.996
788.23, 5173.510
788.41, 4560.144
788.59, 4411.666
788.77, 4371.731
788.95, 4656.740
789.13, 4671.417
789.30, 4376.509
789.48, 4246.805
789.66, 4712.717
789.84, 4648.889
790.02, 4303.124
790.20, 4109.249
790.38, 4737.976
790.56, 4523.622
790.74, 4203.797
790.92, 4320.873
791.10, 4717.155
791.28, 4773.474
791.45, 4438.631
791.63, 4080.919
791.81, 4883.040
791.99, 4587.450
792.17, 4118.465
792.35, 4121.537
792.53, 4137.238
792.71, 4570.384
792.89, 4036.888
793.07, 4229.397
793.24, 4353.640
793.42, 4665.273
793.60, 4007.534
793.78, 4073.410
793.96, 4311.316
794.14, 4381.629
794.32, 4024.600
794.50, 4063.511
794.67, 4374.461
794.85, 4227.349
795.03, 4109.591
795.21, 4072.386
795.39, 4421.565
795.57, 4410.642
795.75, 4063.170
795.93, 4060.781
796.10, 4726.029
796.28, 4311.316
796.46, 3938.244
796.64, 4033.133
796.82, 4564.240
797.00, 4512.358
797.18, 4024.941
797.35, 3986.030
797.53, 4344.083
797.71, 4418.151
797.89, 4222.229
798.07, 4047.810
798.25, 4313.022
798.43, 4557.413
798.60, 4038.594
798.78, 4020.163
798.96, 4657.764
799.14, 4120.172
799.32, 3833.456
799.50, 3999.342
799.67, 4221.546
799.85, 4243.050
800.03, 3939.268
800.21, 3978.179
800.39, 4271.039
800.57, 4320.873
800.74, 3873.392
800.92, 3916.058
801.10, 4109.249
801.28, 3923.225
801.46, 3744.028
801.64, 3795.569
801.81, 4369.683
801.99, 4046.445
802.17, 3856.325
802.35, 3795.227
802.53, 3967.939
802.70, 3534.453
802.88, 3652.894
803.06, 3603.401
803.24, 4058.050
803.42, 4140.310
803.59, 3664.840
803.77, 3567.220
803.95, 4389.821
804.13, 4143.041
804.31, 3709.554
804.48, 3665.864
804.66, 4152.257
804.84, 3823.558
805.02, 3742.663
805.20, 3757.681
805.37, 3937.561
805.55, 4050.541
805.73, 3698.632
805.91, 3810.929
806.08, 4099.692
806.26, 3944.046
806.44, 3630.366
806.62, 3542.645
806.80, 3953.604
806.97, 3877.146
807.15, 3666.888
807.33, 3790.790
807.51, 4106.519
807.68, 3576.095
807.86, 3683.613
808.04, 3608.862
808.22, 3948.142
808.39, 5452.034
808.57, 3635.827
808.75, 3665.181
808.93, 3941.999
809.10, 3761.777
809.28, 3593.844
809.46, 3566.538
809.64, 4150.209
809.81, 3743.346
809.99, 3672.349
810.17, 3468.235
810.35, 4427.026
810.52, 3943.364
810.70, 3636.169
810.88, 3628.659
811.06, 3971.011
811.23, 4153.622
811.41, 3553.908
811.59, 3352.866
811.77, 4129.729
811.94, 3746.759
812.12, 3700.338
812.30, 3619.443
812.47, 3953.945
812.65, 4044.738
812.83, 3652.211
813.01, 3602.377
813.18, 3793.521
813.36, 4012.312
813.54, 3537.525
813.71, 3631.049
813.89, 4390.162
814.07, 3963.844
814.25, 3729.692
814.42, 3623.198
814.60, 4273.769
814.78, 4089.794
814.95, 3469.942
815.13, 3733.447
815.31, 3982.958
815.49, 4177.856
815.66, 3691.805
815.84, 3769.628
816.02, 4221.205
816.19, 4052.248
816.37, 3834.139
816.55, 3827.312
816.72, 4360.808
816.90, 4018.797
817.08, 3703.751
817.25, 3775.430
817.43, 4317.118
817.61, 4147.137
817.78, 4068.973
817.96, 4101.057
818.14, 4105.836
818.31, 4438.631
818.49, 4142.358
818.67, 4071.362
818.84, 4353.299
819.02, 4357.054
819.20, 4265.236
819.37, 4496.657
819.55, 4783.031
819.73, 5084.082
819.90, 4829.452
820.08, 5256.453
820.26, 5631.231
820.43, 5913.168
820.61, 5779.709
820.79, 5964.368
820.96, 6670.576
821.14, 6801.304
821.32, 6919.404
821.49, 7118.739
821.67, 7680.224
821.85, 7900.381
822.02, 7980.593
822.20, 8116.783
822.37, 8798.756
822.55, 8568.701
822.73, 8697.382
822.90, 8683.729
823.08, 9457.178
823.26, 9135.306
823.43, 9104.245
823.61, 9099.125
823.78, 9485.167
823.96, 9321.330
824.14, 9214.153
824.31, 9142.474
824.49, 9647.639
824.67, 9595.758
824.84, 8889.208
825.02, 8778.618
825.19, 9017.889
825.37, 9218.931
825.55, 8317.825
825.72, 8106.202
825.90, 8087.770
826.07, 8118.831
826.25, 7916.082
826.43, 7505.805
826.60, 7499.320
826.78, 7743.029
826.95, 7252.881
827.13, 7181.202
827.31, 7667.595
827.48, 7438.905
827.66, 6889.026
827.83, 7095.870
828.01, 7006.442
828.19, 6938.518
828.36, 6579.782
828.54, 6623.472
828.71, 6627.227
828.89, 6596.849
829.06, 6121.379
829.24, 6318.666
829.42, 6143.906
829.59, 6360.991
829.77, 5711.444
829.94, 5493.676
830.12, 5725.779
830.29, 5389.912
830.47, 5011.380
830.65, 4856.075
830.82, 5467.053
831.00, 5080.669
831.17, 4647.865
831.35, 4638.308
831.52, 4878.262
831.70, 4958.474
831.87, 4377.875
832.05, 4418.151
832.23, 4826.038
832.40, 4830.476
832.58, 4739.000
832.75, 4630.799
832.93, 4966.324
833.10, 4890.208
833.28, 4782.690
833.45, 4718.520
833.63, 5153.713
833.80, 4799.415
833.98, 4845.835
834.15, 4921.269
834.33, 5159.516
834.51, 5108.317
834.68, 4680.291
834.86, 4710.669
835.03, 5056.435
835.21, 5079.986
835.38, 4753.335
835.56, 4734.221
835.73, 5018.889
835.91, 5126.748
836.08, 4464.572
836.26, 4622.607
836.43, 4816.822
836.61, 4823.308
836.78, 4250.218
836.96, 4081.943
837.13, 4822.966
837.31, 4489.489
837.48, 4077.164
837.66, 3777.820
837.83, 4214.378
838.01, 4249.535
838.18, 3594.526
838.36, 3510.901
838.53, 3953.604
838.71, 4330.089
838.88, 3481.547
839.06, 3592.820
839.23, 4083.991
839.41, 3950.190
839.58, 3527.626
839.76, 3407.479
839.93, 4117.441
840.11, 4097.303
840.28, 3429.324
840.46, 3497.931
840.63, 3721.842
840.81, 3874.416
840.98, 3383.927
841.15, 3452.875
841.33, 3931.759
841.50, 3744.370
841.68, 3457.995
841.85, 3514.314
842.03, 4150.550
842.20, 4019.480
842.38, 3236.132
842.55, 3231.012
842.73, 3797.958
842.90, 3533.770
843.08, 3236.815
843.25, 3294.499
843.42, 3574.047
843.60, 3743.687
843.77, 2988.669
843.95, 3030.994
844.12, 3149.776
844.30, 3661.427
844.47, 2909.140
844.64, 2854.868
844.82, 3801.371
844.99, 3321.464
845.17, 2904.702
845.34, 2716.972
845.52, 3334.776
845.69, 3433.420
845.87, 2843.263
846.04, 2760.662
846.21, 3267.193
846.39, 3315.320
846.56, 2792.064
846.74, 2716.972
846.91, 3177.082
847.08, 3155.237
847.26, 2628.227
847.43, 2684.204
847.61, 3158.992
847.78, 3546.399
847.95, 2735.745
848.13, 2679.084
848.30, 3204.388
848.48, 3116.326
848.65, 2736.769
848.83, 2725.846
849.00, 3062.737
849.17, 3183.567
849.35, 2700.247
849.52, 2613.891
849.69, 3289.379
849.87, 3048.743
850.04, 2599.555
850.22, 2566.105
850.39, 3095.846
850.56, 3378.807
850.74, 2573.955
850.91, 2583.171
851.09, 2975.699
851.26, 3191.418
851.43, 2497.839
851.61, 2711.511
851.78, 2966.824
851.95, 3081.510
852.13, 2584.537
852.30, 2535.044
852.48, 3555.274
852.65, 3109.499
852.82, 2602.286
853.00, 2612.525
853.17, 3224.527
853.34, 2815.274
853.52, 2616.963
853.69, 2451.419
853.86, 3286.307
854.04, 3130.662
854.21, 2643.928
854.38, 2556.206
854.56, 2942.248
854.73, 2894.804
854.90, 2638.125
855.08, 2575.321
855.25, 3196.538
855.42, 2747.691
855.60, 2705.367
855.77, 2619.693
855.95, 3162.064
856.12, 3205.412
856.29, 2472.581
856.46, 2650.072
856.64, 2994.813
856.81, 3143.291
856.98, 2637.101
857.16, 2613.891
857.33, 2876.713
857.50, 3230.671
857.68, 2505.007
857.85, 2618.669
858.02, 2918.014
858.20, 2946.003
858.37, 2601.603
858.54, 2445.616
858.72, 4002.755
858.89, 3286.649
859.06, 2538.116
859.24, 2528.217
859.41, 3134.758
859.58, 3145.680
859.75, 2565.764
859.93, 2519.684
860.10, 3130.662
860.27, 3187.322
860.45, 2555.865
860.62, 2612.867
860.79, 3111.547
860.97, 3161.040
861.14, 2585.561
861.31, 2583.854
861.48, 3112.912
861.66, 2807.082
861.83, 2491.695
862.00, 2460.976
862.17, 2861.012
862.35, 3174.693
862.52, 2508.079
862.69, 2617.645
862.87, 3119.398
863.04, 3156.261
863.21, 2455.173
863.38, 2602.968
863.56, 3172.645
863.73, 2989.010
863.90, 2498.522
864.07, 2731.649
864.25, 3379.490
864.42, 2925.523
864.59, 2472.240
864.76, 2513.199
864.94, 3262.414
865.11, 2944.296
865.28, 2482.479
865.45, 2584.878
865.63, 3083.558
865.80, 2911.870
865.97, 2533.337
866.14, 2506.031
866.32, 3157.968
866.49, 2992.424
866.66, 2734.038
866.83, 2559.278
867.01, 3006.077
867.18, 3035.431
867.35, 2488.965
867.52, 2486.917
867.70, 3372.663
867.87, 3456.289
868.04, 2547.332
868.21, 2621.400
868.38, 3162.405
868.56, 3349.112
868.73, 2631.981
868.90, 2544.260
869.07, 3074.001
869.24, 3319.075
869.42, 2636.418
869.59, 2805.717
869.76, 3381.879
869.93, 2998.568
870.11, 2750.763
870.28, 2579.417
870.45, 3407.479
870.62, 3181.861
870.79, 2634.712
870.97, 2715.265
871.14, 3299.619
871.31, 3263.438
871.48, 2666.455
871.65, 2847.359
871.82, 3456.289
872.00, 3209.508
872.17, 2617.304
872.34, 2738.134
872.51, 3108.134
872.68, 3227.940
872.86, 2793.771
873.03, 2600.238
873.20, 3237.839
873.37, 3625.929
873.54, 2617.645
873.71, 2679.426
873.89, 3507.488
874.06, 3316.685
874.23, 2657.922
874.40, 2751.446
874.57, 3542.303
874.74, 3144.997
874.92, 2787.285
875.09, 2592.046
875.26, 3486.325
875.43, 3308.152
875.60, 2726.188
875.77, 2794.112
875.95, 3088.337
876.12, 3302.691
876.29, 2722.433
876.46, 2826.197
876.63, 3184.933
876.80, 3327.267
876.97, 2994.472
877.15, 2692.055
877.32, 3533.429
877.49, 3199.610
877.66, 3142.267
877.83, 2950.099
878.00, 3234.767
878.17, 3818.438
878.34, 2903.678
878.52, 3039.868
878.69, 3512.608
878.86, 3328.973
879.03, 2991.058
879.20, 3037.820
879.37, 3718.770
879.54, 4200.384
879.71, 3160.016
879.89, 3359.351
880.06, 4154.987
880.23, 3964.526
880.40, 3596.233
880.57, 3704.093
880.74, 4110.273
880.91, 4548.539
881.08, 3862.810
881.25, 4052.248
881.42, 4607.588
881.60, 4488.465
881.77, 4066.242
881.94, 4082.626
882.11, 4591.887
882.28, 4787.127
882.45, 4243.733
882.62, 4333.843
882.79, 5050.291
882.96, 4829.452
883.13, 4237.247
883.30, 4532.496
883.48, 4893.280
883.65, 4700.088
883.82, 4164.544
883.99, 4223.936
884.16, 5027.763
884.33, 4595.983
884.50, 4199.019
884.67, 4280.255
884.84, 4595.983
885.01, 4461.841
885.18, 4012.653
885.35, 3949.166
885.52, 4049.858
885.69, 4286.057
885.87, 3743.687
886.04, 3684.296
886.21, 4154.987
886.38, 4192.192
886.55, 3442.294
886.72, 3419.084
886.89, 4070.679
887.06, 3813.659
887.23, 3299.960
887.40, 3334.093
887.57, 3731.399
887.74, 3735.495
887.91, 3004.029
888.08, 3048.401
888.25, 3662.109
888.42, 3976.131
888.59, 3050.449
888.76, 2983.208
888.93, 3489.056
889.10, 3243.641
889.27, 2962.045
889.44, 2977.064
889.61, 3341.261
889.78, 3303.715
889.95, 3021.778
890.12, 3066.151
890.29, 3477.110
890.46, 3227.599
890.63, 2748.715
890.80, 2778.411
890.97, 3246.713
891.15, 3326.584
891.32, 2804.011
891.49, 2839.167
891.66, 3600.329
891.83, 3235.108
892.00, 2850.090
892.17, 2894.121
892.34, 3373.346
892.51, 3400.993
892.68, 2833.706
892.84, 2747.691
893.01, 3105.745
893.18, 3385.634
893.35, 2849.407
893.52, 2797.867
893.69, 3486.325
##END=
##END=   $$end of all blocks
