##TITLE= SPECTRASUITE EXPORTED SPECTRUM
##DATA TYPE= LINK
##BLOCKS= 3
##ORIGIN= OCEANOPTICS EXPORT
##OWNER= hugo
##TITLE= SPECTRASUITE EXPORTED SPECTRA: PROCESSED SPECTRUM
##JCAMP-DX= 5 $$EXPORTED SPECTRASUITE FILE
##DATA TYPE= UV/VIS SPECTRUM
##SAMPLE DESCRIPTION= PROCESSED SPECTRUM
##BLOCK_ID=1
##ORIGIN= OCEANOPTICS EXPORT
##OWNER= hugo
##SPECTROMETER/DATA SYSTEM= OCEANOPTICS EXPORT
##DATA PROCESSING= DARK:Yes REFERENCE:Yes
##DATA PROCESSING= BOXCAR:0 ELECTRICAL DARK: false
##.ACQUISITION TIME= 400
##.AVERAGES= 5
##XUNITS= NANOMETERS
##YUNITS= Transmission (%)
##XFACTOR= 1.0
##YFACTOR= 1.0
##FIRSTX= 176.36
##LASTX= 893.69
##FIRSTY= 32822.795
##MINY= 1656.397
##MAXY= 32822.795
##NPOINTS= 3648
##XYPOINTS= (XY..XY)
176.36, 32822.795
176.58, 32822.795
176.80, 32822.795
177.02, 1658.445
177.24, 1656.397
177.47, 2581.669
177.69, 2577.164
177.91, 3150.595
178.13, 2749.193
178.35, 2412.507
178.57, 2428.072
178.79, 2799.573
179.01, 2802.031
179.23, 2314.614
179.46, 2434.625
179.68, 2755.747
179.90, 2629.592
180.12, 2280.618
180.34, 2386.293
180.56, 2655.806
180.78, 3025.669
181.00, 2287.171
181.22, 2441.998
181.44, 2713.559
181.66, 2831.522
181.89, 2422.337
182.11, 2299.050
182.33, 2790.972
182.55, 3312.385
182.77, 2456.334
182.99, 2557.503
183.21, 2439.950
183.43, 2805.308
183.65, 2369.909
183.87, 2249.898
184.09, 3023.621
184.31, 2947.027
184.53, 2333.456
184.76, 2302.736
184.98, 2727.485
185.20, 3089.566
185.42, 2478.042
185.64, 2349.020
185.86, 3137.898
186.08, 3419.289
186.30, 2301.917
186.52, 2300.688
186.74, 2933.101
186.96, 2872.891
187.18, 2347.382
187.40, 2280.208
187.62, 3083.422
187.84, 3058.437
188.06, 2437.083
188.28, 2385.884
188.51, 3007.647
188.73, 3071.134
188.95, 2414.555
189.17, 2464.935
189.39, 2919.584
189.61, 2924.090
189.83, 2401.448
190.05, 2451.419
190.27, 3130.525
190.49, 2927.367
190.71, 2275.293
190.93, 2330.179
191.15, 2582.489
191.37, 2952.761
191.59, 2384.655
191.81, 2489.511
192.03, 2885.588
192.25, 2938.016
192.47, 2276.112
192.69, 2392.847
192.91, 2847.905
193.13, 2995.359
193.35, 2283.485
193.57, 2468.212
193.79, 2645.976
194.01, 3081.374
194.23, 2369.090
194.45, 2285.943
194.67, 3052.293
194.89, 2603.378
195.11, 2254.814
195.33, 2172.485
195.55, 2781.551
195.77, 2901.972
195.99, 2420.289
196.21, 2354.754
196.43, 2961.363
196.65, 2729.533
196.87, 2528.422
197.09, 2393.666
197.31, 3089.975
197.53, 3091.614
197.75, 2416.603
197.97, 2447.732
198.19, 3077.687
198.41, 3278.798
198.63, 2350.659
198.85, 2381.788
199.07, 3001.913
199.29, 2682.839
199.51, 2391.618
199.73, 2475.994
199.95, 2684.068
200.17, 2919.994
200.39, 2444.046
200.61, 2464.526
200.83, 2674.647
201.05, 2994.540
201.27, 2316.253
201.49, 2402.267
201.71, 3129.706
201.93, 3020.344
202.15, 2358.031
202.37, 2363.766
202.59, 2988.806
202.81, 2806.536
203.03, 2460.839
203.25, 2385.884
203.47, 2815.957
203.69, 2836.437
203.91, 2440.360
204.13, 2255.223
204.35, 2679.972
204.57, 3141.584
204.79, 2324.445
205.01, 2310.928
205.23, 3076.049
205.45, 2846.267
205.67, 2186.821
205.89, 2389.570
206.10, 3046.558
206.32, 2613.618
206.54, 2258.090
206.76, 2351.068
206.98, 2797.116
207.20, 2718.883
207.42, 2392.847
207.64, 2261.777
207.86, 2661.131
208.08, 3326.720
208.30, 2375.234
208.52, 2272.017
208.74, 3010.514
208.96, 3014.610
209.18, 2214.264
209.40, 2561.190
209.62, 2763.119
209.83, 2844.629
210.05, 2324.854
210.27, 2323.625
210.49, 2824.968
210.71, 2676.695
210.93, 2398.171
211.15, 2439.950
211.37, 2596.824
211.59, 2668.913
211.81, 2245.803
212.03, 2257.681
212.25, 2920.403
212.47, 2774.178
212.68, 2324.445
212.90, 2442.408
213.12, 2802.031
213.34, 3065.809
213.56, 2249.489
213.78, 2295.363
214.00, 3129.706
214.22, 2548.492
214.44, 2377.282
214.66, 2366.223
214.88, 2774.178
215.09, 2891.732
215.31, 2162.245
215.53, 2393.256
215.75, 2978.566
215.97, 2586.175
216.19, 2437.492
216.41, 2502.618
216.63, 2739.773
216.85, 3121.924
217.06, 2433.396
217.28, 2398.991
217.50, 2647.614
217.72, 3054.341
217.94, 2400.629
218.16, 2297.002
218.38, 2662.359
218.60, 2685.706
218.82, 2357.212
219.03, 2402.267
219.25, 2877.396
219.47, 2905.248
219.69, 2334.684
219.91, 2402.267
220.13, 3251.765
220.35, 2904.839
220.57, 2369.500
220.78, 2575.935
221.00, 2915.488
221.22, 3006.828
221.44, 2370.319
221.66, 2266.692
221.88, 3162.883
222.10, 2562.828
222.31, 2237.201
222.53, 2254.814
222.75, 2623.448
222.97, 2700.861
223.19, 2368.271
223.41, 2418.651
223.63, 2679.562
223.84, 3112.912
224.06, 2387.522
224.28, 2386.293
224.50, 3006.009
224.72, 2807.765
224.94, 2287.991
225.16, 2419.470
225.37, 3218.588
225.59, 2839.713
225.81, 2357.212
226.03, 2426.843
226.25, 3069.905
226.47, 2732.400
226.68, 2347.382
226.90, 2405.544
227.12, 2675.057
227.34, 3049.425
227.56, 2254.404
227.78, 2312.566
227.99, 2830.293
228.21, 2852.001
228.43, 2478.861
228.65, 2360.898
228.87, 2880.263
229.09, 2684.068
229.30, 2414.965
229.52, 2271.197
229.74, 2864.699
229.96, 3060.484
230.18, 2378.101
230.39, 2351.478
230.61, 2892.551
230.83, 2787.695
231.05, 2281.847
231.27, 2431.758
231.49, 2627.134
231.70, 2981.842
231.92, 2317.481
232.14, 2270.788
232.36, 2707.005
232.58, 3091.204
232.79, 2249.898
233.01, 2299.050
233.23, 2871.252
233.45, 2767.625
233.67, 2306.832
233.88, 2332.636
234.10, 3154.691
234.32, 3050.245
234.54, 2344.105
234.75, 2320.349
234.97, 2887.226
235.19, 3113.732
235.41, 2370.319
235.63, 2389.160
235.84, 3146.909
236.06, 2607.474
236.28, 2319.939
236.50, 2265.463
236.72, 2573.887
236.93, 2682.839
237.15, 2316.253
237.37, 2282.256
237.59, 2946.208
237.80, 2683.658
238.02, 2328.540
238.24, 2312.976
238.46, 2984.300
238.67, 3179.267
238.89, 2448.961
239.11, 2483.776
239.33, 2712.330
239.55, 2717.655
239.76, 2475.175
239.98, 2273.655
240.20, 2858.145
240.42, 2750.832
240.63, 2397.352
240.85, 2362.537
241.07, 2919.175
241.29, 3040.824
241.50, 2316.253
241.72, 2424.795
241.94, 2793.429
242.16, 3231.285
242.37, 2346.972
242.59, 2359.260
242.81, 2548.902
243.03, 3016.658
243.24, 2300.688
243.46, 2455.515
243.68, 3049.016
243.90, 2639.832
244.11, 2260.138
244.33, 2315.024
244.55, 2800.802
244.76, 2768.035
244.98, 2451.009
245.20, 2315.433
245.42, 2933.510
245.63, 2727.075
245.85, 2265.053
246.07, 2287.172
246.29, 2938.835
246.50, 2877.806
246.72, 2409.640
246.94, 2456.743
247.15, 2821.282
247.37, 3152.643
247.59, 2285.124
247.81, 2485.005
248.02, 2793.839
248.24, 2985.938
248.46, 2329.360
248.67, 2278.160
248.89, 2953.990
249.11, 2999.455
249.33, 2492.378
249.54, 2319.529
249.76, 2801.621
249.98, 2568.972
250.19, 2335.094
250.41, 2272.426
250.63, 2935.968
250.84, 2671.370
251.06, 2345.743
251.28, 2389.570
251.50, 2537.024
251.71, 2895.418
251.93, 2359.260
252.15, 2283.895
252.36, 2719.703
252.58, 3280.846
252.80, 2362.127
253.01, 2546.854
253.23, 2963.001
253.45, 2746.326
253.66, 2392.028
253.88, 2402.677
254.10, 2717.655
254.31, 2989.625
254.53, 2240.068
254.75, 2400.219
254.97, 3106.769
255.18, 2836.437
255.40, 2395.304
255.62, 2320.349
255.83, 2691.031
256.05, 2907.706
256.27, 2392.847
256.48, 2437.083
256.70, 2918.355
256.92, 2947.027
257.13, 2500.979
257.35, 2277.751
257.57, 3090.794
257.78, 2858.964
258.00, 2493.607
258.21, 2482.548
258.43, 3028.536
258.65, 2932.282
258.86, 2363.356
259.08, 2381.788
259.30, 3022.392
259.51, 3155.920
259.73, 2244.983
259.95, 2418.242
260.16, 2978.975
260.38, 3179.267
260.60, 2259.319
260.81, 2365.404
261.03, 2958.086
261.25, 2604.607
261.46, 2355.164
261.68, 2305.603
261.89, 2737.315
262.11, 2774.998
262.33, 2388.341
262.54, 2111.456
262.76, 2938.426
262.98, 2926.957
263.19, 2299.459
263.41, 2345.743
263.62, 2789.333
263.84, 2894.189
264.06, 2378.920
264.27, 2385.064
264.49, 2830.293
264.71, 2875.758
264.92, 2432.168
265.14, 2462.887
265.35, 2942.112
265.57, 2954.809
265.79, 2394.075
266.00, 2456.334
266.22, 3156.329
266.43, 2622.629
266.65, 2467.802
266.87, 2224.913
267.08, 2497.293
267.30, 2596.824
267.51, 2550.950
267.73, 2402.677
267.95, 3207.938
268.16, 2720.931
268.38, 2415.784
268.59, 2505.075
268.81, 2949.894
269.03, 3024.031
269.24, 2354.754
269.46, 2419.880
269.67, 2901.972
269.89, 2799.983
270.11, 2447.732
270.32, 2507.533
270.54, 2833.160
270.75, 3343.923
270.97, 2285.124
271.19, 2367.042
271.40, 2821.282
271.62, 2677.924
271.83, 2296.183
272.05, 2309.290
272.26, 2960.953
272.48, 2978.975
272.70, 2581.669
272.91, 2486.234
273.13, 3037.547
273.34, 3043.282
273.56, 2513.677
273.77, 2534.157
273.99, 3292.724
274.21, 3391.846
274.42, 2706.596
274.64, 2590.680
274.85, 2918.355
275.07, 2827.835
275.28, 2550.950
275.50, 2649.252
275.71, 2741.821
275.93, 2753.289
276.15, 2638.603
276.36, 2574.706
276.58, 3129.296
276.79, 2867.566
277.01, 2663.179
277.22, 2620.581
277.44, 3502.027
277.65, 3162.064
277.87, 2605.835
278.08, 2589.861
278.30, 3439.359
278.52, 2974.060
278.73, 2714.787
278.95, 2485.415
279.16, 2750.422
279.38, 3008.056
279.59, 2711.920
279.81, 2481.729
280.02, 3203.433
280.24, 3334.503
280.45, 2675.876
280.67, 2523.507
280.88, 3049.835
281.10, 3198.518
281.31, 2734.038
281.53, 2677.514
281.74, 3130.935
281.96, 2867.156
282.17, 2616.075
282.39, 2634.917
282.60, 2823.330
282.82, 3012.972
283.04, 2622.219
283.25, 2677.924
283.47, 3052.702
283.68, 3094.071
283.90, 2744.278
284.11, 2611.160
284.33, 2830.702
284.54, 3025.669
284.76, 2629.592
284.97, 2801.212
285.19, 2977.747
285.40, 3181.315
285.62, 2854.049
285.83, 2671.370
286.05, 3083.012
286.26, 3032.223
286.48, 2772.540
286.69, 2777.046
286.91, 2866.747
287.12, 3458.610
287.33, 2600.920
287.55, 2650.481
287.76, 3222.684
287.98, 3168.208
288.19, 3000.684
288.41, 2543.987
288.62, 3035.499
288.84, 3180.495
289.05, 2564.057
289.27, 2621.400
289.48, 3275.931
289.70, 2881.082
289.91, 2835.618
290.13, 2782.780
290.34, 3210.805
290.56, 3178.857
290.77, 2790.562
290.99, 2773.769
291.20, 3004.370
291.41, 3038.776
291.63, 2781.142
291.84, 2956.038
292.06, 3262.414
292.27, 3105.949
292.49, 2786.466
292.70, 3007.647
292.92, 3268.968
293.13, 3350.886
293.35, 2872.071
293.56, 2832.750
293.77, 3037.957
293.99, 3489.329
294.20, 2849.134
294.42, 2896.237
294.63, 3388.979
294.85, 3497.111
295.06, 2781.961
295.28, 2881.902
295.49, 2925.319
295.70, 3534.794
295.92, 2876.167
296.13, 3037.957
296.35, 3531.108
296.56, 3270.196
296.78, 2833.160
296.99, 2937.197
297.20, 3271.016
297.42, 3523.735
297.63, 3017.887
297.85, 2874.119
298.06, 3188.687
298.28, 3408.230
298.49, 2957.676
298.70, 2996.588
298.92, 3637.192
299.13, 3621.628
299.35, 3094.481
299.56, 2996.997
299.77, 3142.403
299.99, 3265.691
300.20, 3149.366
300.42, 3031.403
300.63, 3496.702
300.85, 3664.226
301.06, 3194.831
301.27, 3120.695
301.49, 3395.123
301.70, 3581.488
301.92, 3154.281
302.13, 3080.555
302.34, 3397.171
302.56, 3754.746
302.77, 3128.887
302.99, 3157.149
303.20, 3539.709
303.41, 3538.480
303.63, 3214.082
303.84, 3076.049
304.05, 3309.108
304.27, 3563.056
304.48, 3309.518
304.70, 3119.876
304.91, 3843.218
305.12, 3617.532
305.34, 3150.186
305.55, 3160.425
305.77, 3378.329
305.98, 3745.735
306.19, 3317.709
306.41, 3363.174
306.62, 3513.086
306.83, 3794.476
307.05, 3376.281
307.26, 3290.267
307.47, 3939.882
307.69, 3968.144
307.90, 3385.292
308.12, 3420.517
308.33, 3765.805
308.54, 4115.188
308.76, 3270.606
308.97, 3499.979
309.18, 3918.583
309.40, 3631.049
309.61, 3546.672
309.82, 3429.528
310.04, 3810.451
310.25, 4069.314
310.46, 3452.056
310.68, 3544.215
310.89, 3883.768
311.11, 3715.425
311.32, 3581.078
311.53, 3520.458
311.75, 4048.015
311.96, 4069.724
312.17, 3642.108
312.39, 3607.292
312.60, 4038.185
312.81, 4145.498
313.03, 3669.960
313.24, 3605.654
313.45, 3938.654
313.67, 4128.295
313.88, 3740.410
314.09, 3674.466
314.31, 4018.115
314.52, 4091.842
314.73, 3692.897
314.95, 3660.130
315.16, 4382.244
315.37, 4185.639
315.58, 3694.945
315.80, 3562.237
316.01, 3912.849
316.22, 4113.140
316.44, 3757.613
316.65, 3923.089
316.86, 4068.904
317.08, 4173.351
317.29, 3799.801
317.50, 3595.824
317.72, 3957.495
317.93, 4326.129
318.14, 3753.108
318.35, 3939.063
318.57, 4045.967
318.78, 4358.487
318.99, 3847.724
319.21, 3679.381
319.42, 4404.771
319.63, 4087.746
319.85, 3755.975
320.06, 3943.159
320.27, 4199.565
320.48, 3918.174
320.70, 3858.373
320.91, 3919.812
321.12, 4410.506
321.34, 4317.937
321.55, 4047.196
321.76, 3969.783
321.97, 4575.981
322.19, 4313.022
322.40, 4113.960
322.61, 4048.425
322.83, 4360.945
323.04, 4399.446
323.25, 4106.997
323.46, 4126.247
323.68, 4564.103
323.89, 4333.092
324.10, 4117.646
324.31, 4350.705
324.53, 4581.306
324.74, 4884.405
324.95, 4301.963
325.16, 4529.288
325.38, 4958.542
325.59, 4936.014
325.80, 4419.926
326.01, 4373.232
326.23, 5112.959
326.44, 4952.398
326.65, 4459.657
326.86, 4585.402
327.08, 4796.752
327.29, 4780.369
327.50, 4423.612
327.71, 4599.328
327.93, 4392.074
328.14, 4684.524
328.35, 4397.808
328.56, 4488.738
328.78, 4979.022
328.99, 5260.413
329.20, 4477.269
329.41, 4568.609
329.63, 4907.752
329.84, 4795.933
330.05, 4558.778
330.26, 4600.967
330.48, 4635.782
330.69, 4857.372
330.90, 4623.085
331.11, 4435.081
331.32, 4802.896
331.54, 5109.682
331.75, 4580.897
331.96, 4698.040
332.17, 5373.870
332.39, 4782.417
332.60, 4663.225
332.81, 4546.081
333.02, 4852.457
333.23, 4796.343
333.45, 4766.852
333.66, 4845.084
333.87, 5072.409
334.08, 5055.206
334.29, 4782.007
334.51, 4936.014
334.72, 5292.361
334.93, 5237.475
335.14, 4982.708
335.35, 4899.151
335.57, 5057.664
335.78, 5272.700
335.99, 4886.453
336.20, 4784.874
336.41, 5184.638
336.63, 5592.183
336.84, 4938.472
337.05, 5307.106
337.26, 5656.490
337.47, 5293.999
337.69, 5256.317
337.90, 5095.346
338.11, 5626.999
338.32, 5883.814
338.53, 5093.708
338.74, 5187.914
338.96, 5827.290
339.17, 6073.456
339.38, 5717.519
339.59, 5486.508
339.80, 5787.560
340.01, 6040.279
340.23, 5587.268
340.44, 5329.634
340.65, 5954.674
340.86, 5854.733
341.07, 5539.346
341.28, 5595.870
341.50, 6053.386
341.71, 5791.656
341.92, 5749.877
342.13, 5668.778
342.34, 5921.497
342.55, 5905.113
342.77, 5708.508
342.98, 5700.316
343.19, 6232.788
343.40, 6299.552
343.61, 5830.977
343.82, 6036.183
344.03, 5945.663
344.25, 6535.478
344.46, 5857.600
344.67, 6064.035
344.88, 6299.552
345.09, 6501.072
345.30, 6061.168
345.51, 6186.914
345.73, 6529.744
345.94, 6519.913
346.15, 6358.124
346.36, 6299.961
346.57, 6583.400
346.78, 6342.969
346.99, 6253.677
347.21, 6357.305
347.42, 6523.600
347.63, 6520.323
347.84, 6311.430
348.05, 6325.766
348.26, 6529.334
348.47, 6396.216
348.68, 6229.511
348.89, 6404.817
349.11, 6718.976
349.32, 6832.433
349.53, 6127.113
349.74, 6485.098
349.95, 6404.817
350.16, 6866.020
350.37, 6215.176
350.58, 6497.386
350.79, 6946.300
351.01, 6932.784
351.22, 6513.769
351.43, 6481.002
351.64, 6985.621
351.85, 6915.990
352.06, 6588.315
352.27, 6578.076
352.48, 6911.485
352.69, 7141.677
352.90, 6613.301
353.12, 6746.419
353.33, 6976.201
353.54, 6880.765
353.75, 6670.644
353.96, 6632.961
354.17, 6981.116
354.38, 7198.201
354.59, 6825.880
354.80, 6875.441
355.01, 6997.909
355.22, 7132.256
355.43, 6825.061
355.64, 7001.186
355.86, 7477.544
356.07, 7531.610
356.28, 7067.540
356.49, 6788.607
356.70, 7400.949
356.91, 7796.617
357.12, 7348.521
357.33, 7203.525
357.54, 7697.495
357.75, 7604.927
357.96, 7159.289
358.17, 7299.780
358.38, 7601.241
358.59, 7742.960
358.80, 7334.595
359.02, 7408.732
359.23, 7584.857
359.44, 7962.912
359.65, 7373.916
359.86, 7773.270
360.07, 7953.082
360.28, 7630.732
360.49, 7660.632
360.70, 7842.082
360.91, 8001.824
361.12, 8046.879
361.33, 7890.824
361.54, 7814.230
361.75, 8309.838
361.96, 8247.170
362.17, 8103.403
362.38, 8003.871
362.59, 8655.945
362.80, 8482.687
363.01, 7961.274
363.22, 8120.196
363.43, 8078.827
363.64, 8557.233
363.85, 8075.960
364.06, 8295.912
364.27, 8569.520
364.48, 8695.266
364.69, 8140.676
364.90, 8237.340
365.11, 8690.760
365.33, 8758.343
365.54, 8302.465
365.75, 8611.299
365.96, 8789.882
366.17, 8658.402
366.38, 8478.181
366.59, 8506.033
366.80, 8517.502
367.01, 9265.011
367.22, 8082.923
367.43, 8440.498
367.64, 8787.424
367.85, 8840.262
368.06, 8279.528
368.27, 8490.878
368.48, 9219.136
368.69, 8493.746
368.90, 8574.845
369.11, 8603.107
369.32, 9122.882
369.53, 8812.819
369.74, 8526.923
369.94, 8542.487
370.15, 8844.358
370.36, 9186.369
370.57, 8488.421
370.78, 8667.823
370.99, 8920.133
371.20, 9239.206
371.41, 8750.561
371.62, 8836.985
371.83, 8885.727
372.04, 8885.727
372.25, 8707.554
372.46, 8801.760
372.67, 9036.048
372.88, 9385.841
373.09, 8585.904
373.30, 8838.624
373.51, 8938.564
373.72, 9346.520
373.93, 8942.251
374.14, 8845.587
374.35, 9157.697
374.56, 9498.889
374.77, 9120.834
374.98, 8747.694
375.19, 9514.863
375.40, 9481.686
375.61, 8959.454
375.82, 9214.221
376.03, 9304.332
376.23, 9496.021
376.44, 9060.214
376.65, 8955.358
376.86, 9270.745
377.07, 9636.922
377.28, 9300.645
377.49, 9169.166
377.70, 9671.328
377.91, 9411.236
378.12, 9077.007
378.33, 9258.048
378.54, 9364.132
378.75, 9861.789
378.96, 9278.937
379.17, 9308.018
379.37, 9705.324
379.58, 9568.520
379.79, 9213.811
380.00, 9351.435
380.21, 9686.892
380.42, 9866.704
380.63, 9498.889
380.84, 9516.501
381.05, 10024.397
381.26, 10100.582
381.47, 9490.697
381.68, 9813.866
381.89, 10160.383
382.09, 9783.556
382.30, 9890.870
382.51, 9795.844
382.72, 10251.312
382.93, 10073.958
383.14, 9701.228
383.35, 10052.250
383.56, 10164.069
383.77, 10358.216
383.98, 9947.394
384.18, 10166.936
384.39, 10468.807
384.60, 10550.316
384.81, 9919.132
385.02, 9840.490
385.23, 10273.840
385.44, 10450.785
385.65, 10144.818
385.86, 9991.630
386.06, 10597.829
386.27, 10717.840
386.48, 10118.604
386.69, 10148.914
386.90, 10102.630
387.11, 10615.032
387.32, 10116.966
387.53, 10214.449
387.73, 10535.980
387.94, 10876.762
388.15, 10363.131
388.36, 10250.903
388.57, 10947.622
388.78, 10849.319
388.99, 10540.895
389.20, 10036.276
389.40, 11481.732
389.61, 10651.485
389.82, 10325.858
390.03, 10364.360
390.24, 11003.326
390.45, 10634.692
390.66, 10608.478
390.86, 10363.541
391.07, 10507.308
391.28, 10789.928
391.49, 10364.770
391.70, 10565.880
391.91, 10731.766
392.12, 11288.813
392.32, 10333.231
392.53, 10731.356
392.74, 11033.227
392.95, 11077.053
393.16, 10524.102
393.37, 10601.515
393.57, 10964.006
393.78, 10760.847
393.99, 11034.865
394.20, 10666.640
394.41, 11266.695
394.62, 11094.256
394.82, 11031.179
395.03, 10911.578
395.24, 11162.658
395.45, 11045.105
395.66, 10771.087
395.87, 10823.515
396.07, 11281.031
396.28, 11293.319
396.49, 11284.717
396.70, 10916.493
396.91, 11117.194
397.11, 11344.518
397.32, 10680.976
397.53, 11045.924
397.74, 11390.802
397.95, 11406.367
398.16, 10894.784
398.36, 11258.503
398.57, 11466.987
398.78, 11319.123
398.99, 11263.828
399.20, 11029.540
399.40, 10929.190
399.61, 11732.403
399.82, 11165.526
400.03, 11220.002
400.24, 11610.754
400.44, 11194.197
400.65, 11038.142
400.86, 11237.614
401.07, 11635.330
401.27, 11741.005
401.48, 11314.208
401.69, 11104.496
401.90, 12049.019
402.11, 11590.274
402.31, 11490.743
402.52, 11557.097
402.73, 11490.743
402.94, 11595.189
403.15, 11312.979
403.35, 11242.939
403.56, 12123.156
403.77, 11745.101
403.98, 11631.234
404.18, 11399.813
404.39, 12033.864
404.60, 11872.484
404.81, 11723.392
405.01, 11720.116
405.22, 12021.167
405.43, 12271.429
405.64, 11942.115
405.85, 11883.543
406.05, 12460.661
406.26, 12229.650
406.47, 12036.732
406.68, 11827.020
406.88, 12851.004
407.09, 12201.798
407.30, 11751.245
407.51, 11567.747
407.71, 12730.174
407.92, 11852.824
408.13, 11852.414
408.34, 12043.695
408.54, 12109.639
408.75, 11990.857
408.96, 12610.163
409.16, 12314.846
409.37, 12516.775
409.58, 12669.554
409.79, 12423.388
409.99, 12422.159
410.20, 12878.447
410.41, 12328.362
410.62, 12044.923
410.82, 12384.477
411.03, 13170.897
411.24, 12610.163
411.45, 12446.325
411.65, 12419.292
411.86, 12707.236
412.07, 12892.782
412.27, 12605.657
412.48, 12544.628
412.69, 12743.281
412.90, 13427.712
413.10, 12468.443
413.31, 12642.930
413.52, 13001.325
413.72, 12500.801
413.93, 12631.871
414.14, 12285.765
414.35, 12879.266
414.55, 13342.926
414.76, 12644.569
414.97, 12753.930
415.17, 12820.694
415.38, 13075.871
415.59, 12458.613
415.79, 12701.502
416.00, 13326.133
416.21, 13282.306
416.41, 12694.130
416.62, 12293.956
416.83, 13449.830
417.04, 13339.240
417.24, 12784.650
417.45, 12743.281
417.66, 13124.613
417.86, 13308.520
418.07, 12716.248
418.28, 13032.864
418.48, 13614.077
418.69, 13294.594
418.90, 13304.834
419.10, 13097.579
419.31, 13355.214
419.52, 13395.764
419.72, 13123.384
419.93, 13208.579
420.14, 13723.439
420.34, 13556.734
420.55, 13037.779
420.76, 13546.084
420.96, 13349.479
421.17, 13442.867
421.38, 13065.631
421.58, 13192.605
421.79, 13779.963
422.00, 13705.826
422.20, 12957.498
422.41, 13140.587
422.62, 13281.487
422.82, 13617.763
423.03, 13208.579
423.24, 13415.424
423.44, 13136.081
423.65, 13222.505
423.85, 13141.406
424.06, 13391.258
424.27, 13777.915
424.47, 13620.221
424.68, 13772.180
424.89, 13643.158
425.09, 13564.107
425.30, 13553.048
425.51, 13244.624
425.71, 13273.295
425.92, 13516.184
426.12, 14199.796
426.33, 13360.948
426.54, 12828.476
426.74, 13676.335
426.95, 13705.007
427.16, 12813.731
427.36, 14021.623
427.57, 13598.922
427.77, 14147.778
427.98, 13591.549
428.19, 13765.627
428.39, 13727.535
428.60, 13958.545
428.81, 13645.206
429.01, 13186.461
429.22, 13938.885
429.42, 13648.893
429.63, 13889.324
429.84, 13753.749
430.04, 14232.564
430.25, 14246.899
430.45, 13418.291
430.66, 14123.202
430.87, 13627.594
431.07, 13826.656
431.28, 13834.848
431.48, 13753.749
431.69, 14263.693
431.90, 13650.940
432.10, 14486.102
432.31, 13886.866
432.51, 14312.844
432.72, 14229.696
432.92, 14290.726
433.13, 13894.649
433.34, 14284.582
433.54, 14519.689
433.75, 14181.774
433.95, 14060.534
434.16, 14873.987
434.37, 14300.556
434.57, 14145.730
434.78, 14356.671
434.98, 14740.460
435.19, 14638.471
435.39, 14883.408
435.60, 14409.508
435.81, 15117.286
436.01, 14638.471
436.22, 14154.331
436.42, 14542.626
436.63, 15315.529
436.83, 15451.924
437.04, 14939.522
437.24, 14819.511
437.45, 15107.456
437.66, 14825.246
437.86, 14418.929
438.07, 15046.836
438.27, 15092.711
438.48, 14801.080
438.68, 14772.818
438.89, 14980.891
439.09, 15180.773
439.30, 15108.685
439.50, 14262.464
439.71, 15067.725
439.92, 14901.840
440.12, 14975.976
440.33, 14516.412
440.53, 15061.991
440.74, 15030.452
440.94, 15086.567
441.15, 14781.829
441.35, 14773.637
441.56, 15061.581
441.76, 15247.947
441.97, 14914.537
442.17, 15297.507
442.38, 14840.401
442.58, 15113.190
442.79, 14527.062
443.00, 14687.213
443.20, 15182.002
443.41, 14808.452
443.61, 14500.438
443.82, 14740.869
444.02, 14777.733
444.23, 14907.165
444.43, 14632.737
444.64, 14619.630
444.84, 15151.282
445.05, 14657.312
445.25, 14811.729
445.46, 15110.733
445.66, 14675.744
445.87, 14611.847
446.07, 14623.316
446.28, 14852.279
446.48, 15381.884
446.69, 14768.722
446.89, 14901.840
447.10, 15051.342
447.30, 15418.747
447.51, 15181.592
447.71, 15569.887
447.92, 15164.799
448.12, 15769.769
448.33, 15270.884
448.53, 15154.559
448.73, 15442.504
448.94, 16379.244
449.14, 15717.341
449.35, 15576.031
449.55, 15583.404
449.76, 15904.935
449.96, 16417.746
450.17, 15598.559
450.37, 15962.688
450.58, 16200.252
450.78, 16030.271
450.99, 15691.946
451.19, 15841.448
451.40, 15901.658
451.60, 16038.053
451.81, 16045.016
452.01, 15719.389
452.21, 15859.470
452.42, 15758.710
452.62, 15278.666
452.83, 15404.002
453.03, 15771.817
453.24, 15587.500
453.44, 15505.991
453.65, 15339.696
453.85, 16026.584
454.06, 15335.600
454.26, 15440.456
454.46, 15419.976
454.67, 15413.422
454.87, 15626.002
455.08, 15474.452
455.28, 14919.452
455.49, 15935.245
455.69, 15742.326
455.89, 15159.065
456.10, 14929.692
456.30, 15971.289
456.51, 15676.382
456.71, 15200.843
456.92, 15250.404
457.12, 16095.806
457.32, 15460.526
457.53, 15562.515
457.73, 15677.610
457.94, 16187.555
458.14, 15723.075
458.35, 15447.419
458.55, 15124.249
458.75, 16094.167
458.96, 16187.555
459.16, 15674.743
459.37, 15950.809
459.57, 15780.418
459.77, 16079.422
459.98, 15797.621
460.18, 16246.127
460.39, 16457.886
460.59, 16268.245
460.79, 16304.289
461.00, 15928.282
461.20, 16669.646
461.41, 16862.975
461.61, 16556.599
461.81, 16434.540
462.02, 16925.643
462.22, 17504.398
462.43, 17093.576
462.63, 16680.705
462.83, 17556.827
463.04, 17518.734
463.24, 17479.413
463.45, 17333.598
463.65, 17575.258
463.85, 17907.848
464.06, 17431.081
464.26, 17929.557
464.46, 18482.918
464.67, 18826.567
464.87, 18228.151
465.08, 18104.453
465.28, 18951.493
465.48, 18858.925
465.69, 18896.608
465.89, 18745.058
466.09, 20077.466
466.30, 19730.131
466.50, 19125.980
466.71, 19749.791
466.91, 20248.267
467.11, 20902.388
467.32, 20283.492
467.52, 20415.381
467.72, 20912.218
467.93, 20478.868
468.13, 21166.167
468.33, 20554.234
468.54, 21794.893
468.74, 21442.642
468.94, 21327.137
469.15, 21157.975
469.35, 21330.823
469.55, 21559.786
469.76, 21178.454
469.96, 21241.122
470.17, 21049.432
470.37, 21730.587
470.57, 21204.259
470.78, 21160.023
470.98, 22033.686
471.18, 22047.612
471.39, 21497.938
471.59, 21766.631
471.79, 21851.827
471.99, 21738.779
472.20, 21819.469
472.40, 21785.063
472.60, 21537.259
472.81, 22169.262
473.01, 22166.395
473.21, 21881.727
473.42, 22431.402
473.62, 22397.405
473.82, 22168.443
474.03, 21975.114
474.23, 22228.653
474.43, 22079.151
474.64, 21060.082
474.84, 21510.225
475.04, 21601.974
475.25, 21336.558
475.45, 21113.739
475.65, 20820.879
475.85, 21074.008
476.06, 21185.008
476.26, 20657.861
476.46, 20749.610
476.67, 21029.772
476.87, 21060.082
477.07, 20784.835
477.28, 20679.569
477.48, 21288.226
477.68, 21409.056
477.88, 20858.152
478.09, 21256.277
478.29, 21373.831
478.49, 22106.184
478.70, 21358.676
478.90, 21641.705
479.10, 21997.642
479.30, 22464.579
479.51, 21864.524
479.71, 21933.745
479.91, 22963.054
480.11, 23112.556
480.32, 22908.988
480.52, 23064.634
480.72, 23094.124
480.93, 23390.670
481.13, 23197.342
481.33, 23661.412
481.53, 24281.537
481.74, 24246.721
481.94, 24073.053
482.14, 23713.840
482.34, 24423.256
482.55, 24544.496
482.75, 24379.430
482.95, 24015.710
483.15, 24766.086
483.36, 24106.231
483.56, 24794.758
483.76, 24006.699
483.96, 24329.050
484.17, 24397.042
484.37, 23849.006
484.57, 23959.596
484.77, 24372.467
484.98, 24519.511
485.18, 23939.116
485.38, 23814.190
485.58, 24538.762
485.79, 24341.337
485.99, 23760.943
486.19, 23844.910
486.39, 24660.001
486.59, 23964.102
486.80, 23961.234
487.00, 23618.404
487.20, 24379.020
487.40, 24068.958
487.61, 23944.031
487.81, 23552.869
488.01, 24073.463
488.21, 24249.179
488.41, 23987.039
488.62, 23784.290
488.82, 23758.485
489.02, 24302.836
489.22, 23917.817
489.43, 24158.659
489.63, 24660.001
489.83, 24476.094
490.03, 24375.743
490.23, 24290.548
490.44, 24959.005
490.64, 24801.311
490.84, 24900.433
491.04, 25046.658
491.24, 25195.750
491.45, 25726.174
491.65, 25380.067
491.85, 25190.425
492.05, 26315.170
492.25, 25731.499
492.45, 25517.691
492.66, 25224.422
492.86, 25698.321
493.06, 25813.008
493.26, 25502.536
493.46, 25316.170
493.67, 26048.934
493.87, 25247.359
494.07, 25201.484
494.27, 24726.765
494.47, 24845.547
494.67, 25049.115
494.88, 24517.053
495.08, 24491.658
495.28, 24736.186
495.48, 24523.197
495.68, 24167.670
495.89, 23946.489
496.09, 24230.747
496.29, 24295.872
496.49, 24302.426
496.69, 24076.330
496.89, 23746.607
497.09, 24247.540
497.30, 23867.028
497.50, 23787.976
497.70, 24215.183
497.90, 24336.832
498.10, 23670.013
498.30, 24219.278
498.51, 23759.305
498.71, 23802.722
498.91, 23367.733
499.11, 23763.810
499.31, 23989.087
499.51, 24127.120
499.71, 23544.678
499.92, 23348.892
500.12, 23742.102
500.32, 23678.615
500.52, 23721.212
500.72, 23208.811
500.92, 23882.592
501.12, 24010.795
501.32, 23066.272
501.53, 23462.349
501.73, 23939.526
501.93, 23899.795
502.13, 23334.966
502.33, 23083.475
502.53, 23560.242
502.73, 23632.331
502.93, 23257.143
503.14, 23415.656
503.34, 23456.615
503.54, 23531.161
503.74, 23408.283
503.94, 23108.051
504.14, 23790.024
504.34, 23336.194
504.54, 23216.593
504.74, 22837.719
504.95, 23284.585
505.15, 23758.076
505.35, 22766.859
505.55, 23013.434
505.75, 23139.180
505.95, 23234.615
506.15, 22977.800
506.35, 22847.959
506.55, 22792.254
506.75, 22991.726
506.95, 22587.047
507.16, 22714.021
507.36, 22987.220
507.56, 22856.560
507.76, 22618.996
507.96, 22523.970
508.16, 22502.261
508.36, 22721.804
508.56, 22304.837
508.76, 22600.974
508.96, 22603.431
509.16, 23026.132
509.36, 22170.081
509.57, 22214.317
509.77, 22550.184
509.97, 22525.608
510.17, 22300.332
510.37, 22634.151
510.57, 22397.815
510.77, 22352.350
510.97, 22378.155
511.17, 22139.771
511.37, 23058.490
511.57, 22836.080
511.77, 22545.269
511.97, 22385.937
512.17, 22945.442
512.37, 23101.907
512.57, 22512.911
512.78, 22389.214
512.98, 22904.073
513.18, 22667.737
513.38, 22543.630
513.58, 22688.217
513.78, 23144.095
513.98, 22931.106
514.18, 22762.353
514.38, 22553.870
514.58, 22575.169
514.78, 22844.272
514.98, 22894.652
515.18, 22897.929
515.38, 23058.080
515.58, 23147.781
515.78, 22786.520
515.98, 22878.268
516.18, 23482.419
516.38, 23488.563
516.58, 23243.626
516.78, 22799.217
516.98, 23173.995
517.18, 23380.021
517.38, 23072.416
517.58, 23373.467
517.78, 23384.526
517.98, 23692.950
518.18, 23076.512
518.38, 23287.043
518.58, 23834.260
518.78, 23672.471
518.98, 23395.995
519.18, 23269.431
519.38, 23637.655
519.58, 23733.091
519.78, 23386.574
519.98, 23435.726
520.18, 23830.164
520.38, 23809.685
520.58, 23839.175
520.78, 23543.858
520.98, 24107.459
521.18, 24055.031
521.38, 23864.980
521.58, 23712.201
521.78, 24324.134
521.98, 24047.249
522.18, 23870.714
522.38, 24249.588
522.58, 23847.367
522.78, 24406.872
522.98, 24196.751
523.18, 23930.105
523.38, 24412.197
523.58, 24157.020
523.78, 23830.164
523.98, 24043.563
524.18, 24443.326
524.38, 24294.644
524.58, 24255.323
524.78, 24064.452
524.98, 24626.824
525.18, 24375.334
525.38, 24242.625
525.58, 24433.086
525.78, 24832.031
525.98, 24570.300
526.18, 24254.504
526.38, 24013.662
526.58, 24519.101
526.78, 24363.865
526.98, 24347.072
527.17, 24114.013
527.37, 24532.208
527.57, 24406.872
527.77, 24142.684
527.97, 24324.954
528.17, 24261.876
528.37, 24426.123
528.57, 24226.651
528.77, 24070.186
528.97, 24607.573
529.17, 24389.260
529.37, 24247.950
529.57, 24201.256
529.77, 24370.828
529.97, 24705.057
530.17, 24282.765
530.36, 24265.563
530.56, 24614.127
530.76, 24145.142
530.96, 24150.467
531.16, 24080.836
531.36, 24601.839
531.56, 24555.555
531.76, 23694.179
531.96, 23949.356
532.16, 24482.238
532.36, 24116.470
532.56, 23885.869
532.76, 23880.135
532.95, 24016.530
533.15, 24295.463
533.35, 24000.555
533.55, 23622.500
533.75, 24482.647
533.95, 23844.091
534.15, 23625.368
534.35, 23579.493
534.55, 24107.459
534.75, 23642.980
534.94, 23395.176
535.14, 23389.851
535.34, 23688.855
535.54, 23576.216
535.74, 23791.663
535.94, 23274.755
536.14, 23787.157
536.34, 23950.995
536.54, 23640.932
536.73, 23398.043
536.93, 23734.729
537.13, 23845.319
537.33, 23612.260
537.53, 23167.442
537.73, 23350.940
537.93, 23413.608
538.13, 23491.430
538.32, 22999.099
538.52, 23262.058
538.72, 23241.169
538.92, 23064.634
539.12, 22988.859
539.32, 23489.792
539.52, 23282.538
539.72, 23074.464
539.91, 22950.357
540.11, 23081.017
540.31, 23208.811
540.51, 22521.512
540.71, 22921.685
540.91, 23364.047
541.11, 22831.984
541.30, 22639.475
541.50, 22642.752
541.70, 22735.320
541.90, 22816.420
542.10, 22528.066
542.30, 22528.885
542.49, 23039.648
542.69, 22723.032
542.89, 22288.454
543.09, 22652.173
543.29, 23070.778
543.49, 23142.047
543.68, 22592.372
543.88, 22506.767
544.08, 22821.335
544.28, 22764.401
544.48, 22538.306
544.68, 22231.930
544.87, 22622.272
545.07, 22388.804
545.27, 21995.184
545.47, 22186.874
545.67, 22202.848
545.87, 22464.169
546.06, 22099.221
546.26, 22025.904
546.46, 22393.310
546.66, 22327.365
546.86, 22338.834
547.05, 21999.690
547.25, 22281.081
547.45, 22672.243
547.65, 21930.059
547.85, 21579.037
548.04, 22402.321
548.24, 22125.435
548.44, 21654.402
548.64, 21773.594
548.84, 22390.033
549.03, 21572.484
549.23, 21690.447
549.43, 21657.270
549.63, 22007.472
549.83, 21808.819
550.02, 21670.377
550.22, 21586.000
550.42, 21788.340
550.62, 21896.472
550.82, 21304.609
551.01, 21533.572
551.21, 21782.196
551.41, 22105.775
551.61, 21258.325
551.80, 21689.627
552.00, 21533.982
552.20, 21606.480
552.40, 21217.366
552.60, 21271.432
552.79, 21584.362
552.99, 21425.030
553.19, 21239.894
553.39, 20945.805
553.58, 21423.801
553.78, 20884.366
553.98, 20971.610
554.18, 20945.396
554.37, 20831.529
554.57, 21050.661
554.77, 20850.370
554.97, 21015.846
555.16, 21371.783
555.36, 21614.262
555.56, 20865.934
555.76, 20859.791
555.95, 21577.808
556.15, 21185.418
556.35, 20750.839
556.55, 20806.953
556.74, 20773.366
556.94, 21073.598
557.14, 20854.056
557.34, 20784.016
557.53, 21271.842
557.73, 21200.573
557.93, 20810.230
558.13, 20874.945
558.32, 21061.720
558.52, 21196.477
558.72, 20663.186
558.92, 20947.853
559.11, 21230.882
559.31, 21042.469
559.51, 20784.425
559.70, 20691.447
559.90, 21014.617
560.10, 20590.687
560.30, 20564.064
560.49, 20710.698
560.69, 20758.621
560.89, 21146.916
561.08, 20376.879
561.28, 20321.175
561.48, 20714.385
561.68, 20767.222
561.87, 20411.695
562.07, 20300.285
562.27, 20544.403
562.46, 20623.865
562.66, 20480.916
562.86, 20118.835
563.05, 20697.182
563.25, 20522.695
563.45, 20269.156
563.65, 20456.750
563.84, 20963.827
564.04, 20441.595
564.24, 20339.197
564.43, 20251.134
564.63, 20912.628
564.83, 20529.658
565.02, 20179.046
565.22, 20020.942
565.42, 20335.920
565.61, 20516.551
565.81, 20166.758
566.01, 20306.839
566.20, 20265.470
566.40, 20211.404
566.60, 20122.112
566.79, 19803.858
566.99, 20551.776
567.19, 20319.946
567.38, 19866.116
567.58, 19876.766
567.78, 20320.356
567.97, 20180.684
568.17, 19828.433
568.37, 19804.267
568.56, 20693.086
568.76, 20256.868
568.96, 20027.496
569.15, 20186.009
569.35, 21920.229
569.55, 20794.256
569.74, 20184.370
569.94, 20187.647
570.14, 20621.817
570.33, 20529.248
570.53, 20027.086
570.73, 20013.570
570.92, 20261.374
571.12, 20436.680
571.31, 19869.802
571.51, 20070.913
571.71, 20446.510
571.90, 20686.532
572.10, 19805.087
572.30, 19998.005
572.49, 20542.355
572.69, 20374.422
572.88, 19814.098
573.08, 19564.655
573.28, 20664.824
573.47, 20115.559
573.67, 19633.057
573.87, 19767.404
574.06, 20034.050
574.26, 20276.529
574.45, 19778.873
574.65, 19609.710
574.85, 20219.595
575.04, 19888.644
575.24, 19753.068
575.44, 19397.541
575.63, 20035.278
575.83, 19527.792
576.02, 19457.751
576.22, 19404.504
576.42, 19852.190
576.61, 19805.496
576.81, 19116.969
577.00, 19418.840
577.20, 19753.068
577.40, 19744.876
577.59, 19199.297
577.79, 19282.855
577.98, 19712.928
578.18, 19517.961
578.37, 19259.508
578.57, 19115.331
578.77, 19205.851
578.96, 18983.032
579.16, 18999.416
579.35, 18732.770
579.55, 19355.353
579.75, 19114.921
579.94, 19205.441
580.14, 18893.331
580.33, 19893.968
580.53, 19332.415
580.72, 19034.641
580.92, 19267.700
581.12, 19160.386
581.31, 19552.367
581.51, 19105.091
581.70, 19121.884
581.90, 19885.777
582.09, 18991.224
582.29, 18710.652
582.48, 18884.729
582.68, 19364.364
582.88, 19408.600
583.07, 18876.128
583.27, 18604.158
583.46, 19140.316
583.66, 19318.899
583.85, 18859.335
584.05, 18784.379
584.24, 19506.083
584.44, 19247.630
584.63, 18698.364
584.83, 18585.316
585.03, 19208.718
585.22, 18832.301
585.42, 18369.460
585.61, 18595.966
585.81, 18974.021
586.00, 18759.803
586.20, 18463.667
586.39, 18427.623
586.59, 18801.992
586.78, 18720.892
586.98, 18691.401
587.17, 18637.335
587.37, 19013.751
587.56, 19271.386
587.76, 18672.969
587.95, 18650.032
588.15, 18889.645
588.34, 19277.120
588.54, 18580.401
588.74, 18655.357
588.93, 18706.556
589.13, 18972.792
589.32, 18458.342
589.52, 18255.184
589.71, 19157.928
589.91, 18830.253
590.10, 18493.567
590.30, 18500.121
590.49, 18766.357
590.69, 18690.992
590.88, 18327.272
591.08, 18056.531
591.27, 18630.781
591.47, 18342.018
591.66, 18256.003
591.85, 18147.870
592.05, 18695.907
592.24, 18739.324
592.44, 18038.509
592.63, 18046.701
592.83, 18657.814
593.02, 18454.656
593.22, 18233.066
593.41, 17913.173
593.61, 18379.700
593.80, 18933.471
594.00, 17995.911
594.19, 18092.575
594.39, 18432.128
594.58, 18161.796
594.78, 17876.310
594.97, 18047.110
595.17, 18450.150
595.36, 18400.180
595.56, 17904.572
595.75, 17800.535
595.94, 18373.147
596.14, 18335.464
596.33, 17682.572
596.53, 17649.804
596.72, 18247.402
596.92, 18021.715
597.11, 17634.240
597.31, 17958.638
597.50, 18217.501
597.69, 18232.656
597.89, 17614.170
598.08, 17317.624
598.28, 18174.084
598.47, 17662.502
598.67, 17502.351
598.86, 17422.070
599.06, 17813.232
599.25, 17375.376
599.44, 17365.137
599.64, 17309.022
599.83, 17649.395
600.03, 17441.731
600.22, 17012.886
600.42, 17135.764
600.61, 17435.177
600.80, 17345.067
601.00, 17192.698
601.19, 16972.336
601.39, 17454.428
601.58, 17186.144
601.78, 16962.506
601.97, 16955.952
602.16, 17352.439
602.36, 16964.554
602.55, 17125.934
602.75, 16688.488
602.94, 17182.867
603.13, 17421.251
603.33, 16749.927
603.52, 16624.591
603.72, 17201.299
603.91, 16843.724
604.10, 16827.340
604.30, 16612.303
604.49, 17057.941
604.69, 16931.786
604.88, 16498.436
605.07, 16538.576
605.27, 16785.971
605.46, 16618.857
605.66, 16513.182
605.85, 16296.507
606.04, 16800.716
606.24, 16962.506
606.43, 16100.721
606.62, 16200.662
606.82, 16584.861
607.01, 16665.960
607.21, 16076.964
607.40, 16340.333
607.59, 16549.226
607.79, 16270.293
607.98, 16493.112
608.17, 15980.710
608.37, 16718.798
608.56, 17202.528
608.76, 15988.492
608.95, 16046.245
609.14, 16865.432
609.34, 16581.584
609.53, 16240.392
609.72, 15960.640
609.92, 16527.108
610.11, 16551.274
610.30, 16095.806
610.50, 16071.640
610.69, 16174.038
610.88, 16491.064
611.08, 16035.186
611.27, 15902.068
611.46, 16622.953
611.66, 16344.429
611.85, 15854.555
612.04, 15916.813
612.24, 16449.695
612.43, 16262.101
612.62, 15706.282
612.82, 15611.666
613.01, 16156.835
613.20, 16091.710
613.40, 15898.791
613.59, 15623.544
613.78, 16255.138
613.98, 15729.219
614.17, 15765.673
614.36, 15814.824
614.56, 17132.897
614.75, 16137.175
614.94, 15946.713
615.14, 15960.230
615.33, 16663.912
615.52, 16601.654
615.72, 16124.887
615.91, 16180.591
616.10, 16634.831
616.30, 16784.333
616.49, 16448.466
616.68, 16310.023
616.88, 17092.757
617.07, 17237.343
617.26, 16371.872
617.45, 16563.562
617.65, 17414.288
617.84, 16584.041
618.03, 16495.160
618.23, 16667.189
618.42, 17084.974
618.61, 16853.144
618.80, 16661.864
619.00, 16681.934
619.19, 17370.461
619.38, 17374.148
619.58, 16802.355
619.77, 16859.698
619.96, 17374.557
620.15, 17232.019
620.35, 17085.794
620.54, 16799.488
620.73, 17178.771
620.93, 17250.450
621.12, 16764.672
621.31, 17016.982
621.50, 17115.694
621.70, 17780.465
621.89, 16769.997
622.08, 16649.986
622.27, 17370.461
622.47, 17370.052
622.66, 16687.259
622.85, 16933.425
623.04, 17225.465
623.24, 17121.838
623.43, 17059.580
623.62, 16727.809
623.81, 17148.871
624.01, 17358.583
624.20, 16697.499
624.39, 16696.270
624.58, 16988.720
624.78, 17088.251
624.97, 16686.440
625.16, 16537.757
625.35, 16976.842
625.55, 17036.642
625.74, 16589.776
625.93, 16575.849
626.12, 16699.547
626.32, 16754.023
626.51, 16452.562
626.70, 16349.754
626.89, 16819.558
627.09, 16779.418
627.28, 16217.045
627.47, 16451.333
627.66, 16964.554
627.85, 16718.798
628.05, 16195.746
628.24, 16192.879
628.43, 16799.897
628.62, 16692.993
628.82, 16131.031
629.01, 16231.791
629.20, 16484.510
629.39, 16520.145
629.58, 15954.086
629.78, 15923.776
629.97, 16463.211
630.16, 16289.543
630.35, 16018.392
630.54, 15954.086
630.74, 15955.315
630.93, 16107.684
631.12, 15850.869
631.31, 15579.717
631.50, 16443.960
631.70, 16514.001
631.89, 15625.182
632.08, 15710.787
632.27, 15793.116
632.46, 16162.569
632.65, 15665.732
632.85, 15484.692
633.04, 15904.935
633.23, 16031.909
633.42, 15245.489
633.61, 15362.633
633.81, 15755.843
634.00, 15681.706
634.19, 15191.013
634.38, 15186.507
634.57, 15298.327
634.76, 15370.825
634.96, 14783.058
635.15, 14831.799
635.34, 15474.452
635.53, 15378.197
635.72, 15021.032
635.91, 14666.323
636.11, 15311.843
636.30, 15298.736
636.49, 14822.788
636.68, 14598.740
636.87, 14924.777
637.06, 15579.717
637.26, 14595.873
637.45, 14665.914
637.64, 15063.220
637.83, 15009.153
638.02, 14524.604
638.21, 14441.866
638.40, 15329.456
638.60, 15236.478
638.79, 14503.715
638.98, 14213.313
639.17, 14846.954
639.36, 14547.951
639.55, 14443.095
639.74, 14341.106
639.93, 14583.176
640.13, 14698.272
640.32, 14106.409
640.51, 14077.737
640.70, 14762.988
640.89, 14534.025
641.08, 14067.907
641.27, 14062.582
641.46, 14476.272
641.66, 14515.183
641.85, 13941.752
642.04, 13674.287
642.23, 14522.966
642.42, 14102.722
642.61, 13843.040
642.80, 13662.409
642.99, 14008.106
643.18, 14475.453
643.38, 13638.653
643.57, 13768.084
643.76, 13873.760
643.95, 14289.907
644.14, 13686.985
644.33, 13610.800
644.52, 14329.637
644.71, 13983.531
644.90, 13587.863
645.09, 13513.317
645.29, 14100.265
645.48, 13966.328
645.67, 13855.328
645.86, 13738.594
646.05, 14083.881
646.24, 14256.320
646.43, 13557.144
646.62, 13516.594
646.81, 13907.346
647.00, 13893.420
647.19, 13444.915
647.38, 13646.435
647.57, 14089.615
647.77, 14092.073
647.96, 13594.417
648.15, 13489.151
648.34, 14300.556
648.53, 14314.073
648.72, 13444.096
648.91, 13625.955
649.10, 14036.778
649.29, 13482.597
649.48, 13264.694
649.67, 13500.620
649.86, 13997.047
650.05, 13416.653
650.24, 13362.996
650.43, 13493.657
650.62, 13649.712
650.81, 13923.730
651.01, 13201.616
651.20, 13156.561
651.39, 13707.464
651.58, 13822.970
651.77, 13026.310
651.96, 13048.018
652.15, 13378.970
652.34, 13097.170
652.53, 12929.646
652.72, 12774.000
652.91, 13331.867
653.10, 13189.328
653.29, 12606.886
653.48, 12497.524
653.67, 13074.233
653.86, 12847.318
654.05, 12497.525
654.24, 12476.226
654.43, 12663.000
654.62, 12693.310
654.81, 12299.281
655.00, 12223.506
655.19, 12553.639
655.38, 12763.760
655.57, 12219.001
655.76, 12219.001
655.95, 12554.458
656.14, 12301.739
656.33, 12245.624
656.52, 12170.669
656.71, 12314.436
656.90, 12416.015
657.09, 12008.879
657.28, 11910.986
657.47, 12286.174
657.66, 12602.790
657.85, 11763.533
658.04, 11992.905
658.23, 12093.665
658.42, 12461.480
658.61, 11838.898
658.80, 11687.758
658.99, 12164.934
659.18, 12644.569
659.37, 11657.448
659.56, 11681.204
659.75, 12130.528
659.94, 11986.352
660.13, 11611.164
660.32, 11711.104
660.51, 12158.790
660.70, 12045.333
660.89, 11686.938
661.08, 11566.518
661.27, 12217.772
661.46, 11955.632
661.65, 11692.673
661.84, 11749.197
662.03, 12157.971
662.22, 12181.318
662.41, 11653.352
662.60, 11498.935
662.78, 12039.599
662.97, 12128.481
663.16, 11529.654
663.35, 11587.817
663.54, 12025.672
663.73, 12128.890
663.92, 11432.581
664.11, 11526.787
664.30, 11733.223
664.49, 12014.204
664.68, 11327.725
664.87, 11241.710
665.06, 11778.687
665.25, 11755.750
665.44, 11282.669
665.63, 11308.064
665.82, 11743.462
666.01, 12101.447
666.19, 11244.987
666.38, 11370.322
666.57, 11983.075
666.76, 11560.374
666.95, 11374.418
667.14, 11090.980
667.33, 11573.071
667.52, 11986.352
667.71, 11408.005
667.90, 11432.171
668.09, 11827.839
668.28, 11557.916
668.46, 11240.891
668.65, 11282.260
668.84, 12066.222
669.03, 11412.511
669.22, 11064.356
669.41, 11286.765
669.60, 12121.517
669.79, 11246.625
669.98, 11228.193
670.17, 11115.555
670.35, 11580.034
670.54, 11520.643
670.73, 11041.419
670.92, 11102.858
671.11, 11485.009
671.30, 11044.695
671.49, 11075.005
671.68, 10958.681
671.87, 11615.669
672.05, 11679.566
672.24, 11012.747
672.43, 11102.858
672.62, 11340.013
672.81, 11602.562
673.00, 11010.290
673.19, 10821.467
673.38, 11349.843
673.57, 11390.802
673.75, 11194.607
673.94, 10948.441
674.13, 11450.193
674.32, 11208.123
674.51, 10977.932
674.70, 10948.441
674.89, 10872.666
675.07, 11312.160
675.26, 11079.921
675.45, 10841.537
675.64, 11288.813
675.83, 11308.474
676.02, 10833.345
676.21, 10977.522
676.39, 11153.647
676.58, 10831.297
676.77, 10424.571
676.96, 10582.264
677.15, 10946.803
677.34, 11222.459
677.52, 10518.368
677.71, 10613.803
677.90, 11007.832
678.09, 11030.769
678.28, 10524.921
678.47, 10709.648
678.65, 10929.600
678.84, 11238.024
679.03, 10489.696
679.22, 10485.190
679.41, 10832.526
679.60, 10813.685
679.78, 10633.054
679.97, 10557.279
680.16, 11334.688
680.35, 11230.241
680.54, 10828.430
680.73, 10506.080
680.91, 11089.341
681.10, 11262.190
681.29, 10714.563
681.48, 10711.286
681.67, 11301.101
681.85, 11101.219
682.04, 10872.666
682.23, 10785.013
682.42, 11113.507
682.61, 10954.175
682.79, 10898.470
682.98, 10926.323
683.17, 11206.075
683.36, 11133.577
683.55, 10927.961
683.73, 10914.445
683.92, 11253.179
684.11, 11301.920
684.30, 10945.983
684.49, 10800.987
684.67, 11199.522
684.86, 10964.006
685.05, 10613.803
685.24, 10796.482
685.42, 11395.308
685.61, 11009.880
685.80, 10662.135
685.99, 10779.279
686.18, 10948.031
686.36, 10829.249
686.55, 10764.533
686.74, 10745.692
686.93, 11012.747
687.11, 11199.112
687.30, 10398.766
687.49, 10433.582
687.68, 10962.367
687.86, 11015.205
688.05, 10665.412
688.24, 10540.076
688.43, 11287.994
688.61, 11024.216
688.80, 10549.087
688.99, 10458.157
689.18, 11156.924
689.36, 11081.149
689.55, 10378.696
689.74, 10168.165
689.93, 10820.648
690.11, 10635.511
690.30, 10371.323
690.49, 10271.792
690.68, 11021.758
690.86, 10418.427
691.05, 10123.110
691.24, 10050.202
691.43, 10418.427
691.61, 10700.637
691.80, 9933.468
691.99, 9813.866
692.17, 10462.663
692.36, 10183.729
692.55, 9908.892
692.74, 9545.992
692.92, 10026.855
693.11, 10034.637
693.30, 9749.560
693.49, 9552.545
693.67, 9731.948
693.86, 9866.294
694.05, 9441.955
694.23, 9497.660
694.42, 10066.176
694.61, 9485.372
694.79, 9265.420
694.98, 9181.863
695.17, 9815.505
695.36, 9203.162
695.54, 9269.926
695.73, 9015.158
695.92, 9585.723
696.10, 9588.590
696.29, 8837.804
696.48, 9088.885
696.66, 9815.095
696.85, 9153.601
697.04, 8767.764
697.22, 8839.033
697.41, 9547.221
697.60, 9181.044
697.79, 8784.148
697.97, 8790.701
698.16, 9396.900
698.35, 9086.837
698.53, 8687.893
698.72, 8699.362
698.91, 9430.486
699.09, 8927.915
699.28, 8691.989
699.47, 8718.203
699.65, 8806.675
699.84, 9235.929
700.03, 8617.033
700.21, 8511.768
700.40, 8761.210
700.59, 8835.347
700.77, 8598.602
700.96, 8472.856
701.15, 9105.679
701.33, 9092.572
701.52, 8288.949
701.70, 8546.993
701.89, 9096.668
702.08, 8705.096
702.26, 8321.716
702.45, 8243.074
702.64, 8472.856
702.82, 8759.162
703.01, 8293.045
703.20, 8257.000
703.38, 9079.055
703.57, 8553.546
703.76, 8290.587
703.94, 8272.155
704.13, 8554.775
704.31, 8311.067
704.50, 8302.056
704.69, 8260.687
704.87, 8431.078
705.06, 8433.945
705.25, 8129.617
705.43, 7986.259
705.62, 8499.890
705.80, 8578.122
705.99, 8191.465
706.18, 7977.248
706.36, 8349.569
706.55, 8260.277
706.73, 8055.890
706.92, 7997.728
707.11, 8609.251
707.29, 8719.841
707.48, 8271.746
707.66, 8152.144
707.85, 8367.181
708.04, 8510.949
708.22, 8254.952
708.41, 8262.325
708.59, 8816.505
708.78, 8693.627
708.97, 8068.178
709.15, 8347.111
709.34, 8779.232
709.52, 8662.089
709.71, 8330.318
709.90, 8208.259
710.08, 9005.738
710.27, 8394.624
710.45, 8432.716
710.64, 8291.816
710.82, 8822.649
711.01, 8703.048
711.20, 8524.465
711.38, 8356.941
711.57, 8802.579
711.75, 8630.550
711.94, 8505.624
712.12, 8483.506
712.31, 8722.299
712.50, 9001.642
712.68, 8400.358
712.87, 8483.915
713.05, 8750.151
713.24, 8543.306
713.42, 8335.233
713.61, 8368.000
713.79, 8909.893
713.98, 8567.063
714.17, 8365.543
714.35, 8295.093
714.54, 8673.148
714.72, 8510.129
714.91, 8178.358
715.09, 8386.842
715.28, 8370.867
715.46, 8859.922
715.65, 7996.499
715.83, 8078.827
716.02, 8651.849
716.21, 8536.753
716.39, 8060.395
716.58, 7861.742
716.76, 8315.572
716.95, 8537.982
717.13, 7870.344
717.32, 7856.418
717.50, 8628.502
717.69, 8280.757
717.87, 7789.654
718.06, 7753.610
718.24, 8039.916
718.43, 8229.967
718.61, 7834.709
718.80, 7737.636
718.98, 8105.860
719.17, 7914.580
719.35, 7733.130
719.54, 7600.012
719.72, 7754.019
719.91, 7964.550
720.09, 7295.274
720.28, 7491.470
720.46, 7801.532
720.65, 8280.347
720.83, 7360.400
721.02, 7492.698
721.20, 7837.576
721.39, 7640.971
721.57, 7171.577
721.76, 7329.271
721.94, 7557.824
722.13, 7505.396
722.31, 7248.171
722.50, 7183.865
722.68, 7440.680
722.87, 7774.499
723.05, 7057.710
723.24, 7702.001
723.42, 7231.378
723.61, 7730.672
723.79, 6895.511
723.98, 6966.370
724.16, 7726.576
724.34, 7172.396
724.53, 7180.588
724.71, 7174.854
724.90, 7262.507
725.08, 7517.684
725.27, 6930.736
725.45, 6892.644
725.64, 7159.289
725.82, 7813.410
726.01, 6891.415
726.19, 7040.917
726.38, 7395.625
726.56, 7249.400
726.74, 7251.038
726.93, 7020.027
727.11, 8130.026
727.30, 7445.595
727.48, 7124.883
727.67, 7185.913
727.85, 7719.613
728.04, 7840.853
728.22, 7181.817
728.40, 7308.791
728.59, 7629.912
728.77, 7630.322
728.96, 7199.429
729.14, 7217.861
729.33, 8253.724
729.51, 7762.211
729.69, 7445.186
729.88, 7267.832
730.06, 7827.746
730.25, 7817.097
730.43, 7427.163
730.61, 7457.883
730.80, 7810.953
730.98, 8100.945
731.17, 7587.724
731.35, 7431.669
731.54, 7866.658
731.72, 8113.233
731.90, 7418.972
732.09, 7654.078
732.27, 8099.307
732.46, 8189.008
732.64, 7485.326
732.82, 7392.348
733.01, 7926.868
733.19, 8004.281
733.38, 7353.846
733.56, 7514.817
733.74, 7925.639
733.93, 7963.731
734.11, 7352.617
734.29, 7354.665
734.48, 7769.174
734.66, 7599.602
734.85, 7147.001
735.03, 7131.437
735.21, 7514.817
735.40, 7957.587
735.58, 7058.119
735.77, 7068.359
735.95, 7623.768
736.13, 7271.108
736.32, 6910.666
736.50, 7079.828
736.68, 7161.337
736.87, 7650.392
737.05, 6943.433
737.23, 6974.153
737.42, 7408.732
737.60, 7236.293
737.79, 6900.836
737.97, 6808.267
738.15, 7371.459
738.34, 7218.271
738.52, 6766.079
738.70, 6956.950
738.89, 7378.012
739.07, 7087.201
739.25, 6886.500
739.44, 6762.393
739.62, 7427.163
739.80, 6963.913
739.99, 6655.489
740.17, 6794.751
740.35, 7432.079
740.54, 7305.514
740.72, 6664.910
740.90, 6653.441
741.09, 6805.810
741.27, 7083.105
741.45, 6701.773
741.64, 6618.216
741.82, 7169.529
742.00, 6983.983
742.19, 6656.718
742.37, 6678.017
742.55, 6875.031
742.74, 6959.817
742.92, 6462.980
743.10, 6724.710
743.29, 7170.758
743.47, 7099.079
743.65, 6410.552
743.83, 6643.611
744.02, 6905.751
744.20, 6734.540
744.38, 6357.714
744.57, 6433.489
744.75, 6610.843
744.93, 6729.216
745.12, 6368.364
745.30, 6383.928
745.48, 7235.474
745.66, 6483.869
745.85, 6110.729
746.03, 6285.626
746.21, 6903.293
746.40, 6609.205
746.58, 6257.364
746.76, 6164.386
746.94, 6868.478
747.13, 6670.644
747.31, 6116.463
747.49, 6246.305
747.68, 6575.208
747.86, 6757.068
748.04, 6118.921
748.22, 6046.013
748.41, 6784.101
748.59, 6765.260
748.77, 6040.279
748.95, 6224.187
749.14, 6440.043
749.32, 6629.275
749.50, 6080.829
749.68, 5941.977
749.87, 6336.825
750.05, 6487.146
750.23, 5973.106
750.42, 6079.190
750.60, 6446.186
750.78, 6389.662
750.96, 6158.242
751.15, 6195.515
751.33, 6135.714
751.51, 6611.662
751.69, 6048.061
751.87, 5995.633
752.06, 6239.751
752.24, 6375.327
752.42, 5987.441
752.60, 5898.969
752.79, 6750.515
752.97, 6480.592
753.15, 5944.024
753.33, 5959.179
753.52, 6259.412
753.70, 6336.415
753.88, 5892.825
754.06, 5980.478
754.24, 6217.224
754.43, 6669.005
754.61, 5950.988
754.79, 5896.512
754.97, 6187.733
755.16, 6543.260
755.34, 6030.039
755.52, 6099.261
755.70, 6403.589
755.88, 6135.305
756.07, 5930.098
756.25, 5901.836
756.43, 6561.282
756.61, 6215.176
756.79, 6077.552
756.98, 5907.571
757.16, 6475.677
757.34, 6223.367
757.52, 6020.619
757.70, 6047.242
757.89, 6672.692
758.07, 7035.592
758.25, 6190.190
758.43, 6073.456
758.61, 6652.622
758.80, 6673.921
758.98, 6291.360
759.16, 6259.412
759.34, 6813.592
759.52, 6672.282
759.70, 6343.788
759.89, 6329.452
760.07, 6768.946
760.25, 6790.245
760.43, 6317.164
760.61, 6570.703
760.79, 6815.640
760.98, 6957.769
761.16, 6782.463
761.34, 6851.684
761.52, 7019.208
761.70, 7477.953
761.88, 7232.606
762.07, 7340.739
762.25, 8214.403
762.43, 8042.373
762.61, 7836.757
762.79, 7905.159
762.97, 8538.391
763.15, 8514.635
763.34, 8198.838
763.52, 8437.631
763.70, 9212.583
763.88, 9213.811
764.06, 8838.214
764.24, 8733.768
764.42, 9380.926
764.61, 9222.003
764.79, 8745.236
764.97, 8943.889
765.15, 9066.358
765.33, 9428.848
765.51, 8816.915
765.69, 8895.147
765.87, 9167.118
766.06, 8959.454
766.24, 8213.174
766.42, 8037.458
766.60, 8485.144
766.78, 8528.561
766.96, 7914.990
767.14, 7536.935
767.32, 8027.628
767.50, 7515.226
767.69, 7221.957
767.87, 7164.614
768.05, 7679.883
768.23, 7140.857
768.41, 6871.754
768.59, 6474.858
768.77, 6964.732
768.95, 6757.478
769.13, 6325.356
769.32, 6263.917
769.50, 6751.334
769.68, 6618.625
769.86, 6173.807
770.04, 5964.504
770.22, 6111.548
770.40, 6362.629
770.58, 5828.109
770.76, 5760.936
770.94, 6435.537
771.12, 5932.146
771.30, 5690.486
771.49, 5823.194
771.67, 6148.002
771.85, 6068.951
772.03, 5640.516
772.21, 5615.530
772.39, 5964.095
772.57, 6108.681
772.75, 5332.501
772.93, 5551.634
773.11, 6052.567
773.29, 5922.316
773.47, 5435.309
773.65, 5453.741
773.83, 5939.519
774.01, 5609.386
774.19, 5321.032
774.38, 5474.220
774.56, 5933.785
774.74, 5821.556
774.92, 5162.929
775.10, 5188.734
775.28, 5400.494
775.46, 5816.641
775.64, 4987.214
775.82, 5052.339
776.00, 5158.424
776.18, 5287.855
776.36, 4965.505
776.54, 5192.830
776.72, 5338.645
776.90, 5451.283
777.08, 4988.033
777.26, 5032.269
777.44, 5226.826
777.62, 5448.416
777.80, 4888.092
777.98, 4919.631
778.16, 5183.818
778.34, 5362.401
778.52, 4993.357
778.70, 4879.490
778.88, 5136.715
779.06, 4973.697
779.24, 4849.180
779.42, 4862.697
779.60, 5429.165
779.78, 5226.007
779.96, 4651.756
780.14, 4716.062
780.32, 5156.785
780.50, 5329.634
780.68, 4766.033
780.86, 4704.184
781.04, 5196.925
781.22, 4976.564
781.40, 4822.966
781.58, 4650.118
781.76, 5015.885
781.94, 5134.258
782.12, 4749.240
782.30, 4830.749
782.48, 5161.700
782.66, 5149.822
782.84, 4720.158
783.02, 4713.605
783.20, 5132.619
783.38, 5204.298
783.56, 4517.409
783.74, 4483.823
783.92, 4820.918
784.10, 5081.420
784.28, 4557.550
784.46, 4564.922
784.64, 4891.778
784.82, 4886.044
785.00, 4403.542
785.18, 4378.967
785.36, 5072.819
785.54, 4530.107
785.72, 4501.435
785.90, 4433.033
786.08, 4625.133
786.26, 4730.808
786.43, 4554.273
786.61, 4563.694
786.79, 5212.900
786.97, 5313.250
787.15, 4587.860
787.33, 4514.133
787.51, 4882.358
787.69, 5248.534
787.87, 4554.273
788.05, 4668.140
788.23, 5665.091
788.41, 4963.047
788.59, 4745.144
788.77, 4674.284
788.95, 5122.379
789.13, 5084.287
789.30, 4794.704
789.48, 4629.638
789.66, 5141.221
789.84, 5133.029
790.02, 4642.745
790.20, 4546.900
790.38, 5155.557
790.56, 4951.988
790.74, 4564.513
790.92, 4667.321
791.10, 5167.844
791.28, 5218.634
791.45, 4740.228
791.63, 4391.255
791.81, 5306.287
791.99, 4971.649
792.17, 4430.166
792.35, 4452.284
792.53, 4458.018
792.71, 4935.605
792.89, 4316.709
793.07, 4494.882
793.24, 4685.753
793.42, 5006.464
793.60, 4273.701
793.78, 4305.240
793.96, 4634.963
794.14, 4705.413
794.32, 4251.174
794.50, 4299.915
794.67, 4657.900
794.85, 4565.332
795.03, 4358.078
795.21, 4305.240
795.39, 4693.535
795.57, 4738.590
795.75, 4342.513
795.93, 4367.498
796.10, 5069.542
796.28, 4538.708
796.46, 4199.565
796.64, 4291.314
796.82, 4869.660
797.00, 4857.372
797.18, 4258.137
797.35, 4240.934
797.53, 4638.240
797.71, 4704.184
797.89, 4465.391
798.07, 4320.804
798.25, 4615.712
798.43, 4887.273
798.60, 4306.878
798.78, 4339.646
798.96, 5032.678
799.14, 4450.236
799.32, 4081.602
799.50, 4219.225
799.67, 4512.085
799.85, 4608.339
800.03, 4244.210
800.21, 4179.495
800.39, 4636.192
800.57, 4640.288
800.74, 4141.812
800.92, 4174.580
801.10, 4412.144
801.28, 4221.683
801.46, 3953.399
801.64, 3983.709
801.81, 4746.372
801.99, 4307.697
802.17, 4152.052
802.35, 4098.395
802.53, 4331.044
802.70, 3853.868
802.88, 3890.731
803.06, 3862.879
803.24, 4443.273
803.42, 4463.753
803.59, 3942.749
803.77, 3817.823
803.95, 4729.579
804.13, 4494.882
804.31, 3985.347
804.48, 3971.831
804.66, 4471.535
804.84, 4097.985
805.02, 3986.166
805.20, 4039.823
805.37, 4317.528
805.55, 4414.601
805.73, 3957.495
805.91, 4039.414
806.08, 4504.302
806.26, 4315.480
806.44, 3898.104
806.62, 3878.443
806.80, 4372.413
806.97, 4283.941
807.15, 3967.735
807.33, 4096.757
807.51, 4475.221
807.68, 3874.757
807.86, 3945.207
808.04, 3892.369
808.22, 4286.399
808.39, 5995.633
808.57, 3936.606
808.75, 3961.591
808.93, 4308.107
809.10, 4154.509
809.28, 3947.665
809.46, 3881.720
809.64, 4557.140
809.81, 4097.166
809.99, 3970.602
810.17, 3782.598
810.35, 4885.225
810.52, 4329.816
810.70, 3962.820
810.88, 3979.203
811.06, 4384.701
811.23, 4573.524
811.41, 3898.923
811.59, 3751.879
811.77, 4527.240
811.94, 4111.912
812.12, 4028.355
812.30, 3853.458
812.47, 4363.402
812.65, 4485.052
812.83, 3950.122
813.01, 3886.635
813.18, 4174.170
813.36, 4346.199
813.54, 3748.192
813.71, 3895.237
813.89, 4740.638
814.07, 4300.734
814.25, 4066.037
814.42, 3898.923
814.60, 4678.380
814.78, 4393.712
814.95, 3679.381
815.13, 3977.565
815.31, 4262.233
815.49, 4463.753
815.66, 3921.041
815.84, 3955.856
816.02, 4471.945
816.19, 4311.793
816.37, 4000.502
816.55, 4057.436
816.72, 4607.520
816.90, 4294.590
817.08, 3907.524
817.25, 3977.565
817.43, 4652.166
817.61, 4416.240
817.78, 4231.103
817.96, 4319.166
818.14, 4356.439
818.31, 4728.350
818.49, 4308.107
818.67, 4285.989
818.84, 4590.727
819.02, 4591.546
819.20, 4503.074
819.37, 4705.003
819.55, 5149.822
819.73, 5454.560
819.90, 5127.295
820.08, 5622.493
820.26, 6106.224
820.43, 6482.231
820.61, 6268.832
820.79, 6435.947
820.96, 7265.374
821.14, 7465.256
821.32, 7606.975
821.49, 7785.558
821.67, 8531.019
821.85, 8830.432
822.02, 8749.742
822.20, 8954.948
822.37, 9844.586
822.55, 9461.616
822.73, 9705.733
822.90, 9803.217
823.08, 10604.792
823.26, 10372.552
823.43, 10308.246
823.61, 10234.929
823.78, 10678.109
823.96, 10445.869
824.14, 10287.357
824.31, 10105.907
824.49, 10820.648
824.67, 10798.120
824.84, 9927.733
825.02, 9810.590
825.19, 10050.202
825.37, 10247.626
825.55, 9159.335
825.72, 9048.745
825.90, 9122.882
826.07, 9082.741
826.25, 8730.491
826.43, 8415.923
826.60, 8297.550
826.78, 8632.188
826.95, 8007.558
827.13, 7852.322
827.31, 8486.783
827.48, 8184.502
827.66, 7584.857
827.83, 7672.101
828.01, 7650.802
828.19, 7654.488
828.36, 7226.872
828.54, 7252.267
828.71, 7287.492
828.89, 7203.525
829.06, 6645.249
829.24, 6933.603
829.42, 6798.847
829.59, 6934.422
829.77, 6306.925
829.94, 5996.862
830.12, 6267.604
830.29, 5931.737
830.47, 5555.730
830.65, 5369.364
830.82, 6042.327
831.00, 5578.667
831.17, 5065.036
831.35, 5060.531
831.52, 5359.534
831.70, 5424.660
831.87, 4726.712
832.05, 4779.549
832.23, 5379.195
832.40, 5335.778
832.58, 5156.785
832.75, 5035.955
832.93, 5434.490
833.10, 5493.062
833.28, 5257.955
833.45, 5206.346
833.63, 5797.800
833.80, 5365.678
833.98, 5368.136
834.15, 5402.542
834.33, 5793.704
834.51, 5830.567
834.68, 5228.055
834.86, 5303.829
835.03, 5679.427
835.21, 5801.486
835.38, 5387.796
835.56, 5297.686
835.73, 5780.187
835.91, 5775.272
836.08, 5070.771
836.26, 5166.206
836.43, 5382.881
836.61, 5316.527
836.78, 4744.734
836.96, 4555.502
837.13, 5422.612
837.31, 5015.475
837.48, 4424.432
837.66, 4213.491
837.83, 4692.716
838.01, 4700.088
838.18, 3904.248
838.36, 3794.067
838.53, 4315.889
838.71, 4752.516
838.88, 3838.303
839.06, 3904.657
839.23, 4435.081
839.41, 4385.930
839.58, 3855.096
839.76, 3724.846
839.93, 4554.273
840.11, 4495.701
840.28, 3774.406
840.46, 3892.779
840.63, 4045.148
840.81, 4296.638
840.98, 3681.429
841.15, 3711.329
841.33, 4383.882
841.50, 4119.694
841.68, 3823.558
841.85, 3848.543
842.03, 4527.649
842.20, 4451.874
842.38, 3546.263
842.55, 3593.366
842.73, 4217.587
842.90, 3971.421
843.08, 3507.761
843.25, 3634.735
843.42, 3984.528
843.60, 4161.063
843.77, 3256.270
843.95, 3247.259
844.12, 3429.938
844.30, 3993.129
844.47, 3105.540
844.64, 3099.396
844.82, 4123.790
844.99, 3628.591
845.17, 3107.178
845.34, 2898.285
845.52, 3582.307
845.69, 3694.126
845.87, 3015.020
846.04, 2899.105
846.21, 3545.853
846.39, 3556.912
846.56, 2949.485
846.74, 2885.178
846.91, 3443.864
847.08, 3421.337
847.26, 2793.839
847.43, 2876.986
847.61, 3349.658
847.78, 3743.687
847.95, 2863.060
848.13, 2799.573
848.30, 3426.252
848.48, 3328.359
848.65, 2910.164
848.83, 2862.651
849.00, 3326.720
849.17, 3460.248
849.35, 2832.341
849.52, 2716.426
849.69, 3530.698
849.87, 3273.473
850.04, 2741.821
850.22, 2679.972
850.39, 3288.628
850.56, 3657.263
850.74, 2727.075
850.91, 2717.655
851.09, 3207.119
851.26, 3384.064
851.43, 2618.942
851.61, 2837.666
851.78, 3186.230
851.95, 3289.447
852.13, 2688.983
852.30, 2671.370
852.48, 3867.384
852.65, 3361.126
852.82, 2682.020
853.00, 2725.846
853.17, 3520.049
853.34, 3008.876
853.52, 2731.581
853.69, 2597.644
853.86, 3508.170
854.04, 3363.993
854.21, 2778.274
854.38, 2661.540
854.56, 3170.256
854.73, 3107.178
854.90, 2788.514
855.08, 2713.968
855.25, 3390.207
855.42, 2987.167
855.60, 2850.772
855.77, 2770.083
855.95, 3385.702
856.12, 3439.768
856.29, 2623.858
856.46, 2820.872
856.64, 3261.185
856.81, 3364.403
856.98, 2750.422
857.16, 2765.167
857.33, 3065.809
857.50, 3475.813
857.68, 2657.035
857.85, 2763.119
858.02, 3158.787
858.20, 3195.241
858.37, 2798.344
858.54, 2602.968
858.72, 4440.815
858.89, 3569.610
859.06, 2687.754
859.24, 2697.584
859.41, 3378.739
859.58, 3422.156
859.75, 2774.178
859.93, 2729.942
860.10, 3381.606
860.27, 3469.669
860.45, 2725.437
860.62, 2745.507
860.79, 3321.396
860.97, 3392.665
861.14, 2754.518
861.31, 2752.060
861.48, 3354.163
861.66, 3028.127
861.83, 2619.762
862.00, 2639.832
862.17, 3105.130
862.35, 3421.337
862.52, 2676.695
862.69, 2797.935
862.87, 3391.846
863.04, 3417.650
863.21, 2592.319
863.38, 2749.603
863.56, 3391.846
863.73, 3199.337
863.90, 2673.418
864.07, 2879.854
864.25, 3660.949
864.42, 3126.429
864.59, 2631.230
864.76, 2652.939
864.94, 3496.292
865.11, 3118.237
865.28, 2640.241
865.45, 2742.640
865.63, 3270.196
865.80, 3130.115
865.97, 2709.463
866.14, 2637.374
866.32, 3385.292
866.49, 3204.662
866.66, 2885.178
866.83, 2664.817
867.01, 3204.252
867.18, 3245.211
867.35, 2602.149
867.52, 2620.171
867.70, 3567.562
867.87, 3729.761
868.04, 2707.005
868.21, 2719.293
868.38, 3436.492
868.56, 3599.510
868.73, 2792.201
868.90, 2696.765
869.07, 3289.038
869.24, 3486.052
869.42, 2728.714
869.59, 2985.529
869.76, 3628.181
869.93, 3217.359
870.11, 2863.880
870.28, 2738.134
870.45, 3665.454
870.62, 3417.650
870.79, 2820.463
870.97, 2862.651
871.14, 3536.023
871.31, 3545.034
871.48, 2825.378
871.65, 2984.300
871.82, 3740.820
872.00, 3418.060
872.17, 2776.226
872.34, 2861.422
872.51, 3305.012
872.68, 3520.458
872.86, 2985.938
873.03, 2806.127
873.20, 3477.861
873.37, 3887.864
873.54, 2771.721
873.71, 2863.470
873.89, 3801.030
874.06, 3570.429
874.23, 2817.595
874.40, 2919.584
874.57, 3860.011
874.74, 3455.333
874.92, 2946.617
875.09, 2738.953
875.26, 3718.702
875.43, 3598.691
875.60, 2874.529
875.77, 2908.116
875.95, 3291.086
876.12, 3538.071
876.29, 2842.171
876.46, 2986.758
876.63, 3477.861
876.80, 3617.122
876.97, 3127.248
877.15, 2880.263
877.32, 3793.657
877.49, 3441.816
877.66, 3313.613
877.83, 3107.997
878.00, 3440.588
878.17, 4134.439
878.34, 3098.167
878.52, 3220.636
878.69, 3771.130
878.86, 3626.543
879.03, 3125.610
879.20, 3189.916
879.37, 4000.912
879.54, 4525.192
879.71, 3384.473
879.89, 3555.683
880.06, 4533.793
880.23, 4366.269
880.40, 3851.410
880.57, 4039.823
880.74, 4509.627
880.91, 4940.110
881.08, 4280.255
881.25, 4376.100
881.42, 5084.287
881.60, 4907.752
881.77, 4435.081
881.94, 4478.908
882.11, 5094.937
882.28, 5276.796
882.45, 4643.974
882.62, 4784.055
882.79, 5594.231
882.96, 5423.021
883.13, 4690.668
883.30, 5019.571
883.48, 5572.523
883.65, 5269.833
883.82, 4691.487
883.99, 4768.081
884.16, 5593.412
884.33, 5205.937
884.50, 4680.837
884.67, 4769.719
884.84, 5133.848
885.01, 5010.970
885.18, 4541.166
885.35, 4418.288
885.52, 4526.421
885.69, 4728.760
885.87, 4115.598
886.04, 4046.786
886.21, 4683.705
886.38, 4647.251
886.55, 3798.163
886.72, 3759.251
886.89, 4486.690
887.06, 4243.391
887.23, 3636.783
887.40, 3619.990
887.57, 4109.864
887.74, 4098.395
887.91, 3262.414
888.08, 3318.938
888.25, 4031.222
888.42, 4292.543
888.59, 3282.894
888.76, 3256.270
888.93, 3757.203
889.10, 3508.170
889.27, 3192.783
889.44, 3181.724
889.61, 3598.281
889.78, 3567.152
889.95, 3234.971
890.12, 3246.850
890.29, 3755.565
890.46, 3531.108
890.63, 2944.569
890.80, 2960.544
890.97, 3452.056
891.15, 3670.779
891.32, 2957.267
891.49, 2996.588
891.66, 3893.598
891.83, 3498.340
892.00, 3030.175
892.17, 3085.879
892.34, 3606.063
892.51, 3696.174
892.68, 3041.234
892.84, 2959.315
893.01, 3393.484
893.18, 3694.536
893.35, 3085.879
893.52, 2971.193
893.69, 3768.672
##END=
##TITLE= SPECTRASUITE EXPORTED SPECTRA: DARK SPECTRUM
##JCAMP-DX= 5 $$EXPORTED SPECTRASUITE FILE
##DATA TYPE= UV/VIS SPECTRUM
##SAMPLE DESCRIPTION= DARK SPECTRUM
##BLOCK_ID=2
##ORIGIN= OCEANOPTICS EXPORT
##OWNER= hugo
##SPECTROMETER/DATA SYSTEM= OCEANOPTICS EXPORT
##DATA PROCESSING= DARK:Yes REFERENCE:Yes
##DATA PROCESSING= BOXCAR:0 ELECTRICAL DARK: false
##.ACQUISITION TIME= 400
##.AVERAGES= 5
##XUNITS= NANOMETERS
##YUNITS= Transmission (%)
##XFACTOR= 1.0
##YFACTOR= 1.0
##FIRSTX= 176.36
##LASTX= 893.69
##FIRSTY= 32822.795
##MINY= 1618.305
##MAXY= 32822.795
##NPOINTS= 3648
##XYPOINTS= (XY..XY)
176.36, 32822.795
176.58, 32822.795
176.80, 32822.795
177.02, 1660.083
177.24, 1618.305
177.47, 2590.271
177.69, 2545.216
177.91, 3115.780
178.13, 2739.363
178.35, 2421.109
178.57, 2412.917
178.79, 2719.703
179.01, 2827.016
179.23, 2299.459
179.46, 2435.035
179.68, 2740.182
179.90, 2642.699
180.12, 2274.884
180.34, 2366.633
180.56, 2655.806
180.78, 3012.152
181.00, 2239.659
181.22, 2472.717
181.44, 2668.094
181.66, 2852.001
181.89, 2465.345
182.11, 2300.279
182.33, 2734.857
182.55, 3230.466
182.77, 2450.190
182.99, 2527.193
183.21, 2418.241
183.43, 2731.990
183.65, 2328.131
183.87, 2179.039
184.09, 3027.307
184.31, 2911.802
184.53, 2263.825
184.76, 2292.087
184.98, 2670.551
185.20, 3008.466
185.42, 2478.452
185.64, 2302.736
185.86, 3066.628
186.08, 3378.329
186.30, 2248.670
186.52, 2269.559
186.74, 2889.274
186.96, 2885.178
187.18, 2373.186
187.40, 2285.533
187.62, 3058.027
187.84, 3017.068
188.06, 2396.533
188.28, 2358.850
188.51, 3028.946
188.73, 3092.433
188.95, 2375.234
189.17, 2465.754
189.39, 2894.189
189.61, 2928.186
189.83, 2415.784
190.05, 2412.098
190.27, 3118.647
190.49, 2874.119
190.71, 2281.437
190.93, 2282.666
191.15, 2541.529
191.37, 2888.865
191.59, 2358.850
191.81, 2506.304
192.03, 2830.702
192.25, 2885.588
192.47, 2274.474
192.69, 2358.031
192.91, 2870.023
193.13, 2956.038
193.35, 2235.153
193.57, 2484.186
193.79, 2612.389
194.01, 3042.872
194.23, 2328.131
194.45, 2280.618
194.67, 3026.488
194.89, 2566.514
195.11, 2241.707
195.33, 2186.002
195.55, 2746.736
195.77, 2922.451
195.99, 2391.618
196.21, 2337.961
196.43, 2986.758
196.65, 2664.817
196.87, 2521.869
197.09, 2352.706
197.31, 3054.341
197.53, 3044.920
197.75, 2382.607
197.97, 2393.666
198.19, 3011.743
198.41, 3244.802
198.63, 2312.976
198.85, 2368.681
199.07, 2998.636
199.29, 2602.968
199.51, 2389.160
199.73, 2462.068
199.95, 2665.227
200.17, 2885.588
200.39, 2404.725
200.61, 2441.588
200.83, 2688.573
201.05, 2960.134
201.27, 2284.714
201.49, 2376.053
201.71, 3065.400
201.93, 3002.732
202.15, 2348.611
202.37, 2295.773
202.59, 2896.237
202.81, 2804.488
203.03, 2454.695
203.25, 2462.068
203.47, 2767.625
203.69, 2795.068
203.91, 2413.326
204.13, 2263.825
204.35, 2609.522
204.57, 3086.698
204.79, 2300.278
205.01, 2289.629
205.23, 3082.603
205.45, 2790.562
205.67, 2176.172
205.89, 2322.806
206.10, 3041.643
206.32, 2557.913
206.54, 2253.994
206.76, 2328.540
206.98, 2792.610
207.20, 2682.429
207.42, 2366.633
207.64, 2214.264
207.86, 2633.688
208.08, 3359.078
208.30, 2310.518
208.52, 2276.522
208.74, 3029.355
208.96, 2990.034
209.18, 2201.157
209.40, 2552.998
209.62, 2688.983
209.83, 2813.499
210.05, 2256.452
210.27, 2293.725
210.49, 2817.186
210.71, 2636.555
210.93, 2398.991
211.15, 2388.751
211.37, 2578.802
211.59, 2687.754
211.81, 2234.334
212.03, 2232.286
212.25, 2883.950
212.47, 2755.747
212.68, 2332.227
212.90, 2386.293
213.12, 2822.101
213.34, 3024.031
213.56, 2230.238
213.78, 2317.481
214.00, 3129.706
214.22, 2535.795
214.44, 2356.802
214.66, 2317.891
214.88, 2748.374
215.09, 2850.363
215.31, 2089.747
215.53, 2326.492
215.75, 2944.979
215.97, 2611.979
216.19, 2417.013
216.41, 2503.437
216.63, 2675.876
216.85, 3055.160
217.06, 2428.072
217.28, 2291.677
217.50, 2597.644
217.72, 2992.492
217.94, 2387.522
218.16, 2298.640
218.38, 2578.393
218.60, 2648.843
218.82, 2303.555
219.03, 2369.090
219.25, 2820.872
219.47, 2870.843
219.69, 2290.448
219.91, 2408.002
220.13, 3186.639
220.35, 2862.651
220.57, 2374.415
220.78, 2540.710
221.00, 2903.200
221.22, 2959.724
221.44, 2334.275
221.66, 2255.633
221.88, 3107.178
222.10, 2531.699
222.31, 2214.264
222.53, 2202.795
222.75, 2578.802
222.97, 2652.120
223.19, 2335.094
223.41, 2356.802
223.63, 2678.334
223.84, 3245.211
224.06, 2344.515
224.28, 2341.647
224.50, 2958.086
224.72, 2718.064
224.94, 2272.017
225.16, 2375.234
225.37, 3219.407
225.59, 2796.706
225.81, 2346.563
226.03, 2408.002
226.25, 3062.942
226.47, 2697.994
226.68, 2318.301
226.90, 2359.670
227.12, 2702.090
227.34, 3017.887
227.56, 2258.090
227.78, 2299.869
227.99, 2743.869
228.21, 2811.042
228.43, 2435.854
228.65, 2390.389
228.87, 2848.315
229.09, 2675.057
229.30, 2405.134
229.52, 2218.360
229.74, 2836.027
229.96, 3017.887
230.18, 2323.216
230.39, 2320.349
230.61, 2864.699
230.83, 2745.917
231.05, 2262.596
231.27, 2412.917
231.49, 2626.315
231.70, 3060.894
231.92, 2339.600
232.14, 2296.592
232.36, 2666.046
232.58, 2978.156
232.79, 2233.515
233.01, 2268.740
233.23, 2831.522
233.45, 2720.522
233.67, 2289.219
233.88, 2324.035
234.10, 3145.270
234.32, 3032.632
234.54, 2333.456
234.75, 2312.157
234.97, 2882.311
235.19, 3085.879
235.41, 2317.891
235.63, 2339.190
235.84, 3135.440
236.06, 2568.153
236.28, 2295.363
236.50, 2226.961
236.72, 2532.928
236.93, 2647.204
237.15, 2310.109
237.37, 2303.965
237.59, 2853.640
237.80, 2651.710
238.02, 2302.736
238.24, 2259.319
238.46, 2984.300
238.67, 3128.477
238.89, 2401.039
239.11, 2426.843
239.33, 2637.374
239.55, 2705.776
239.76, 2401.448
239.98, 2210.577
240.20, 2828.245
240.42, 2716.016
240.63, 2368.271
240.85, 2356.393
241.07, 2880.263
241.29, 2991.673
241.50, 2289.629
241.72, 2379.330
241.94, 2752.880
242.16, 3178.448
242.37, 2333.456
242.59, 2340.009
242.81, 2438.312
243.03, 2961.772
243.24, 2260.548
243.46, 2428.072
243.68, 2979.795
243.90, 2595.596
244.11, 2261.367
244.33, 2279.389
244.55, 2722.570
244.76, 2693.079
244.98, 2399.400
245.20, 2279.389
245.42, 2870.023
245.63, 2693.488
245.85, 2209.349
246.07, 2269.149
246.29, 2876.167
246.50, 2871.252
246.72, 2365.814
246.94, 2410.869
247.15, 2759.024
247.37, 3076.868
247.59, 2229.828
247.81, 2445.275
248.02, 2767.625
248.24, 2944.569
248.46, 2290.039
248.67, 2269.149
248.89, 2925.319
249.11, 2949.894
249.33, 2451.828
249.54, 2274.474
249.76, 2709.053
249.98, 2551.769
250.19, 2266.692
250.41, 2285.124
250.63, 2856.097
250.84, 2627.134
251.06, 2338.371
251.28, 2402.677
251.50, 2524.326
251.71, 2790.153
251.93, 2286.762
252.15, 2281.847
252.36, 2683.249
252.58, 3211.215
252.80, 2352.297
253.01, 2528.422
253.23, 2962.592
253.45, 2709.463
253.66, 2333.865
253.88, 2366.223
254.10, 2670.551
254.31, 2930.643
254.53, 2219.179
254.75, 2404.725
254.97, 3116.189
255.18, 2800.392
255.40, 2363.356
255.62, 2303.146
255.83, 2654.577
256.05, 2885.998
256.27, 2361.308
256.48, 2401.448
256.70, 2892.141
256.92, 2896.237
257.13, 2461.249
257.35, 2244.983
257.57, 3061.304
257.78, 2843.400
258.00, 2491.968
258.21, 2491.149
258.43, 3006.418
258.65, 2853.230
258.86, 2324.854
259.08, 2342.876
259.30, 2985.119
259.51, 3089.566
259.73, 2207.710
259.95, 2400.219
260.16, 2986.348
260.38, 3149.776
260.60, 2216.721
260.81, 2308.061
261.03, 2858.964
261.25, 2564.057
261.46, 2320.349
261.68, 2257.681
261.89, 2676.695
262.11, 2729.123
262.33, 2332.636
262.54, 2120.876
262.76, 2881.902
262.98, 2861.422
263.19, 2260.548
263.41, 2313.386
263.62, 2735.677
263.84, 2811.042
264.06, 2342.876
264.27, 2332.636
264.49, 2781.142
264.71, 2775.407
264.92, 2387.932
265.14, 2417.422
265.35, 2867.975
265.57, 2842.171
265.79, 2335.504
266.00, 2373.596
266.22, 3070.315
266.43, 2551.769
266.65, 2389.980
266.87, 2173.304
267.08, 2438.312
267.30, 2498.112
267.51, 2445.684
267.73, 2321.987
267.95, 3109.636
268.16, 2634.507
268.38, 2345.334
268.59, 2409.230
268.81, 2845.038
269.03, 2990.854
269.24, 2267.511
269.46, 2378.920
269.67, 2765.577
269.89, 2672.190
270.11, 2355.574
270.32, 2387.932
270.54, 2745.097
270.75, 3212.034
270.97, 2234.334
271.19, 2255.223
271.40, 2716.016
271.62, 2566.105
271.83, 2233.105
272.05, 2196.651
272.26, 2834.798
272.48, 2877.396
272.70, 2481.319
272.91, 2402.677
273.13, 2870.433
273.34, 2890.913
273.56, 2428.481
273.77, 2419.880
273.99, 3146.909
274.21, 3206.300
274.42, 2573.887
274.64, 2437.083
274.85, 2800.392
275.07, 2680.791
275.28, 2423.157
275.50, 2541.939
275.71, 2601.740
275.93, 2577.573
276.15, 2533.337
276.36, 2453.057
276.58, 2957.267
276.79, 2703.319
277.01, 2514.086
277.22, 2547.673
277.44, 3310.337
277.65, 2939.245
277.87, 2473.946
278.08, 2410.050
278.30, 3268.558
278.52, 2793.020
278.73, 2541.120
278.95, 2334.275
279.16, 2589.861
279.38, 2854.049
279.59, 2602.559
279.81, 2332.636
280.02, 3006.828
280.24, 3084.651
280.45, 2524.736
280.67, 2351.887
280.88, 2855.688
281.10, 3037.138
281.31, 2528.422
281.53, 2467.393
281.74, 2907.296
281.96, 2651.300
282.17, 2434.625
282.39, 2401.039
282.60, 2614.846
282.82, 2771.721
283.04, 2435.035
283.25, 2451.828
283.47, 2817.186
283.68, 2874.119
283.90, 2516.954
284.11, 2378.920
284.33, 2595.186
284.54, 2701.680
284.76, 2406.363
284.97, 2544.396
285.19, 2723.798
285.40, 2949.894
285.62, 2573.887
285.83, 2381.788
286.05, 2853.640
286.26, 2752.880
286.48, 2497.703
286.69, 2481.319
286.91, 2605.426
287.12, 3107.997
287.33, 2330.998
287.55, 2366.633
287.76, 2959.724
287.98, 2945.798
288.19, 2729.533
288.41, 2251.946
288.62, 2770.902
288.84, 2829.883
289.05, 2266.282
289.27, 2294.544
289.48, 2965.049
289.70, 2568.153
289.91, 2487.463
290.13, 2446.503
290.34, 2854.459
290.56, 2797.525
290.77, 2446.913
290.99, 2419.880
291.20, 2658.673
291.41, 2682.839
291.63, 2389.160
291.84, 2561.599
292.06, 2887.636
292.27, 2731.581
292.49, 2389.980
292.70, 2627.954
292.92, 2858.555
293.13, 2940.474
293.35, 2443.636
293.56, 2398.581
293.77, 2600.920
293.99, 3007.647
294.20, 2377.282
294.42, 2441.998
294.63, 2933.920
294.85, 2971.193
295.06, 2329.769
295.28, 2384.655
295.49, 2468.212
295.70, 3025.669
295.92, 2395.714
296.13, 2584.946
296.35, 3037.957
296.56, 2750.012
296.78, 2303.965
296.99, 2390.389
297.20, 2714.787
297.42, 2935.558
297.63, 2491.149
297.85, 2393.666
298.06, 2679.972
298.28, 2842.171
298.49, 2340.828
298.70, 2406.363
298.92, 3041.234
299.13, 2968.326
299.35, 2535.795
299.56, 2411.688
299.77, 2496.474
299.99, 2708.234
300.20, 2546.035
300.42, 2358.850
300.63, 2843.809
300.85, 3020.754
301.06, 2564.057
301.27, 2468.622
301.49, 2751.241
301.70, 2914.260
301.92, 2448.551
302.13, 2458.382
302.34, 2709.463
302.56, 3054.341
302.77, 2439.950
302.99, 2476.404
303.20, 2773.359
303.41, 2775.407
303.63, 2452.238
303.84, 2375.234
304.05, 2587.404
304.27, 2780.322
304.48, 2527.603
304.70, 2328.131
304.91, 2943.341
305.12, 2808.994
305.34, 2317.891
305.55, 2385.474
305.77, 2534.976
305.98, 2852.001
306.19, 2423.566
306.41, 2517.363
306.62, 2625.086
306.83, 2915.079
307.05, 2475.585
307.26, 2395.714
307.47, 2999.455
307.69, 3035.909
307.90, 2407.182
308.12, 2425.205
308.33, 2761.481
308.54, 3030.175
308.76, 2247.441
308.97, 2442.817
309.18, 2871.252
309.40, 2643.928
309.61, 2512.448
309.82, 2367.042
310.04, 2730.352
310.25, 2983.071
310.46, 2312.976
310.68, 2396.943
310.89, 2811.042
311.11, 2552.179
311.32, 2435.035
311.53, 2372.777
311.75, 2879.444
311.96, 2876.577
312.17, 2496.884
312.39, 2464.935
312.60, 2837.256
312.81, 2952.761
313.03, 2450.190
313.24, 2389.570
313.45, 2711.511
313.67, 2856.507
313.88, 2508.762
314.09, 2419.061
314.31, 2748.374
314.52, 2778.274
314.73, 2450.599
314.95, 2356.802
315.16, 3125.610
315.37, 2957.676
315.58, 2403.906
315.80, 2266.282
316.01, 2593.957
316.22, 2802.850
316.44, 2438.312
316.65, 2574.706
316.86, 2755.747
317.08, 2833.570
317.29, 2515.725
317.50, 2355.574
317.72, 2636.965
317.93, 2993.311
318.14, 2423.566
318.35, 2616.075
318.57, 2716.835
318.78, 3022.802
318.99, 2472.717
319.21, 2287.991
319.42, 2991.673
319.63, 2697.584
319.85, 2290.448
320.06, 2445.684
320.27, 2749.193
320.48, 2454.695
320.70, 2371.138
320.91, 2435.854
321.12, 2838.894
321.34, 2779.503
321.55, 2417.013
321.76, 2423.976
321.97, 2888.455
322.19, 2660.721
322.40, 2512.448
322.61, 2525.555
322.83, 2818.415
323.04, 2718.474
323.25, 2433.806
323.46, 2458.382
323.68, 2862.651
323.89, 2586.585
324.10, 2364.175
324.31, 2495.655
324.53, 2734.857
324.74, 3005.189
324.95, 2419.061
325.16, 2621.810
325.38, 2847.905
325.59, 2870.023
325.80, 2466.574
326.01, 2421.109
326.23, 2987.577
326.44, 2897.466
326.65, 2411.688
326.86, 2592.319
327.08, 2841.352
327.29, 2782.370
327.50, 2415.374
327.71, 2594.367
327.93, 2413.736
328.14, 2606.245
328.35, 2347.382
328.56, 2515.315
328.78, 2847.086
328.99, 3175.171
329.20, 2400.629
329.41, 2499.341
329.63, 2791.791
329.84, 2703.319
330.05, 2428.072
330.26, 2414.555
330.48, 2431.348
330.69, 2649.662
330.90, 2417.832
331.11, 2310.928
331.32, 2605.426
331.54, 2904.020
331.75, 2394.895
331.96, 2429.301
332.17, 3045.739
332.39, 2514.086
332.60, 2335.913
332.81, 2307.242
333.02, 2604.607
333.23, 2478.452
333.45, 2448.961
333.66, 2525.965
333.87, 2722.979
334.08, 2642.699
334.29, 2441.998
334.51, 2491.149
334.72, 2856.097
334.93, 2774.588
335.14, 2509.171
335.35, 2444.865
335.57, 2551.769
335.78, 2763.529
335.99, 2349.020
336.20, 2253.585
336.41, 2628.363
336.63, 2931.872
336.84, 2291.267
337.05, 2597.644
337.26, 2963.820
337.47, 2564.466
337.69, 2476.813
337.90, 2373.596
338.11, 2866.337
338.32, 3135.850
338.53, 2299.869
338.74, 2378.101
338.96, 2929.824
339.17, 3162.883
339.38, 2762.710
339.59, 2503.437
339.80, 2814.319
340.01, 2973.241
340.23, 2521.869
340.44, 2297.002
340.65, 2865.927
340.86, 2808.994
341.07, 2359.670
341.28, 2500.160
341.50, 2905.658
341.71, 2579.212
341.92, 2507.123
342.13, 2342.057
342.34, 2586.994
342.55, 2581.260
342.77, 2391.618
342.98, 2327.312
343.19, 2786.057
343.40, 2847.496
343.61, 2358.031
343.82, 2602.968
344.03, 2476.813
344.25, 3012.562
344.46, 2381.378
344.67, 2546.035
344.88, 2732.400
345.09, 2835.208
345.30, 2405.954
345.51, 2573.887
345.73, 2829.883
345.94, 2815.957
346.15, 2541.529
346.36, 2602.968
346.57, 2857.326
346.78, 2585.765
346.99, 2403.087
347.21, 2597.234
347.42, 2826.606
347.63, 2700.452
347.84, 2516.954
348.05, 2475.585
348.26, 2727.894
348.47, 2488.692
348.68, 2328.950
348.89, 2496.474
349.11, 2826.197
349.32, 2906.887
349.53, 2278.980
349.74, 2598.872
349.95, 2459.201
350.16, 2881.902
350.37, 2235.563
350.58, 2442.817
350.79, 2854.868
351.01, 2897.876
351.22, 2533.747
351.43, 2447.732
351.64, 2840.533
351.85, 2812.680
352.06, 2430.120
352.27, 2406.773
352.48, 2675.466
352.69, 3008.466
352.90, 2523.917
353.12, 2532.518
353.33, 2795.068
353.54, 2639.832
353.75, 2464.935
353.96, 2418.242
354.17, 2684.477
354.38, 2809.813
354.59, 2523.507
354.80, 2487.872
355.01, 2623.858
355.22, 2729.942
355.43, 2358.850
355.64, 2556.684
355.86, 2923.680
356.07, 2985.119
356.28, 2401.039
356.49, 2233.105
356.70, 2721.341
356.91, 3142.403
357.12, 2482.138
357.33, 2480.909
357.54, 2823.739
357.75, 2761.481
357.96, 2297.821
358.17, 2469.850
358.38, 2672.599
358.59, 2805.717
358.80, 2350.249
359.02, 2511.219
359.23, 2514.086
359.44, 2959.724
359.65, 2222.456
359.86, 2492.378
360.07, 2695.946
360.28, 2498.522
360.49, 2369.500
360.70, 2498.931
360.91, 2503.027
361.12, 2753.699
361.33, 2480.500
361.54, 2495.245
361.75, 2904.020
361.96, 2697.584
362.17, 2522.278
362.38, 2476.404
362.59, 2892.551
362.80, 2989.625
363.01, 2393.256
363.22, 2432.577
363.43, 2563.647
363.64, 2920.403
363.85, 2360.898
364.06, 2456.743
364.27, 2647.614
364.48, 2812.271
364.69, 2280.618
364.90, 2410.869
365.11, 2727.075
365.33, 2808.584
365.54, 2359.670
365.75, 2626.725
365.96, 2942.931
366.17, 2702.090
366.38, 2381.378
366.59, 2488.692
366.80, 2503.847
367.01, 2990.854
367.22, 2316.662
367.43, 2434.625
367.64, 2788.514
367.85, 2820.463
368.06, 2312.157
368.27, 2428.481
368.48, 2994.540
368.69, 2469.850
368.90, 2488.692
369.11, 2361.718
369.32, 2855.688
369.53, 2803.669
369.74, 2395.304
369.94, 2445.275
370.15, 2707.005
370.36, 2927.776
370.57, 2408.821
370.78, 2475.994
370.99, 2686.935
371.20, 2961.363
371.41, 2449.780
371.62, 2600.920
371.83, 2630.001
372.04, 2726.666
372.25, 2380.559
372.46, 2497.703
372.67, 2700.861
372.88, 3087.518
373.09, 2294.954
373.30, 2461.658
373.51, 2720.931
373.72, 2790.562
373.93, 2518.592
374.14, 2336.323
374.35, 2803.669
374.56, 3058.437
374.77, 2567.743
374.98, 2216.312
375.19, 2962.182
375.40, 2925.319
375.61, 2339.190
375.82, 2577.983
376.03, 2806.946
376.23, 2904.020
376.44, 2381.788
376.65, 2497.703
376.86, 2586.175
377.07, 2926.138
377.28, 2531.289
377.49, 2317.481
377.70, 3010.104
377.91, 2728.714
378.12, 2354.345
378.33, 2367.452
378.54, 2513.267
378.75, 3066.628
378.96, 2358.031
379.17, 2374.825
379.37, 2742.230
379.58, 2645.156
379.79, 2283.076
380.00, 2401.039
380.21, 2597.644
380.42, 2889.684
380.63, 2391.618
380.84, 2369.909
381.05, 2732.810
381.26, 2967.916
381.47, 2481.729
381.68, 2557.503
381.89, 2886.407
382.09, 2750.012
382.30, 2615.256
382.51, 2518.182
382.72, 2940.883
382.93, 2622.219
383.14, 2337.552
383.35, 2508.352
383.56, 2756.566
383.77, 2739.773
383.98, 2417.832
384.18, 2489.101
384.39, 2899.105
384.60, 2822.920
384.81, 2274.884
385.02, 2356.393
385.23, 2635.736
385.44, 2711.511
385.65, 2320.349
385.86, 2484.596
386.06, 2693.489
386.27, 3018.706
386.48, 2466.983
386.69, 2563.238
386.90, 2567.743
387.11, 2654.987
387.32, 2401.039
387.53, 2414.146
387.73, 2646.795
387.94, 3010.514
388.15, 2510.810
388.36, 2471.489
388.57, 3096.119
388.78, 2912.212
388.99, 2534.976
389.20, 2284.714
389.40, 3544.624
389.61, 2637.784
389.82, 2384.245
390.03, 2274.064
390.24, 2858.964
390.45, 2763.119
390.66, 2483.367
390.86, 2387.112
391.07, 2529.651
391.28, 2541.939
391.49, 2294.954
391.70, 2319.529
391.91, 2562.418
392.12, 3188.278
392.32, 2319.939
392.53, 2408.002
392.74, 2743.459
392.95, 2854.868
393.16, 2288.400
393.37, 2394.075
393.57, 2796.706
393.78, 2499.751
393.99, 2459.610
394.20, 2455.105
394.41, 2839.713
394.62, 2737.725
394.82, 2437.083
395.03, 2342.467
395.24, 2755.747
395.45, 2722.570
395.66, 2394.895
395.87, 2489.511
396.07, 3008.466
396.28, 2822.920
396.49, 2421.109
396.70, 2340.009
396.91, 2630.821
397.11, 2800.392
397.32, 2252.356
397.53, 2303.965
397.74, 2617.714
397.95, 2744.688
398.16, 2423.976
398.36, 2615.256
398.57, 2729.123
398.78, 2652.529
398.99, 2531.699
399.20, 2293.315
399.40, 2450.599
399.61, 2921.632
399.82, 2403.087
400.03, 2348.201
400.24, 3010.924
400.44, 2527.603
400.65, 2464.935
400.86, 2444.046
401.07, 2562.828
401.27, 2855.688
401.48, 2467.802
401.69, 2354.754
401.90, 2901.153
402.11, 2687.754
402.31, 2375.644
402.52, 2519.002
402.73, 2520.230
402.94, 2613.618
403.15, 2462.478
403.35, 2319.529
403.56, 3026.898
403.77, 2630.821
403.98, 2511.219
404.18, 2313.386
404.39, 2817.186
404.60, 2639.013
404.81, 2543.168
405.01, 2324.854
405.22, 2573.478
405.43, 2888.046
405.64, 2433.396
405.85, 2497.703
406.05, 2988.396
406.26, 2898.285
406.47, 2596.824
406.68, 2462.068
406.88, 3111.274
407.09, 2696.356
407.30, 2328.950
407.51, 2275.293
407.71, 2903.610
407.92, 2569.791
408.13, 2247.031
408.34, 2433.806
408.54, 2488.282
408.75, 2463.297
408.96, 2475.175
409.16, 2487.463
409.37, 2600.920
409.58, 2958.086
409.79, 2517.363
409.99, 2435.035
410.20, 3019.116
410.41, 2654.168
410.62, 2445.684
410.82, 2386.293
411.03, 2951.123
411.24, 2621.400
411.45, 2423.157
411.65, 2462.068
411.86, 2731.581
412.07, 2616.485
412.27, 2546.854
412.48, 2458.382
412.69, 2716.426
412.90, 2969.145
413.10, 2464.116
413.31, 2417.832
413.52, 2736.496
413.72, 2471.898
413.93, 2293.725
414.14, 2287.581
414.35, 2796.297
414.55, 2829.474
414.76, 2403.496
414.97, 2316.662
415.17, 2645.976
415.38, 2955.219
415.59, 2439.540
415.79, 2305.194
416.00, 3072.772
416.21, 3010.514
416.41, 2300.278
416.62, 2285.124
416.83, 2967.507
417.04, 2982.252
417.24, 2406.363
417.45, 2525.145
417.66, 2904.839
417.86, 2588.223
418.07, 2392.847
418.28, 2430.939
418.48, 3067.038
418.69, 2654.168
418.90, 2539.481
419.10, 2410.459
419.31, 2665.227
419.52, 2536.204
419.72, 2405.134
419.93, 2327.721
420.14, 2882.311
420.34, 2929.005
420.55, 2407.182
420.76, 2630.001
420.96, 2568.972
421.17, 2732.810
421.38, 2417.013
421.58, 2477.633
421.79, 2939.654
422.00, 2737.315
422.20, 2437.492
422.41, 2321.577
422.62, 2523.917
422.82, 2942.522
423.03, 2538.252
423.24, 2553.407
423.44, 2445.275
423.65, 2767.215
423.85, 2340.419
424.06, 2600.511
424.27, 2939.245
424.47, 2799.573
424.68, 2856.507
424.89, 2659.492
425.09, 2945.798
425.30, 2842.581
425.51, 2375.644
425.71, 2471.898
425.92, 2849.544
426.12, 3146.499
426.33, 2369.090
426.54, 2245.803
426.74, 2813.909
426.95, 2692.260
427.16, 2355.983
427.36, 2308.470
427.57, 2770.902
427.77, 2883.540
427.98, 2595.596
428.19, 2450.190
428.39, 2577.983
428.60, 2922.861
428.81, 2364.175
429.01, 2442.408
429.22, 2818.824
429.42, 2681.610
429.63, 2598.872
429.84, 2576.345
430.04, 2512.038
430.25, 2976.108
430.45, 2376.463
430.66, 2349.430
430.87, 2530.880
431.07, 2658.263
431.28, 2439.540
431.48, 2298.640
431.69, 2720.931
431.90, 2647.204
432.10, 2543.987
432.31, 2356.802
432.51, 2641.470
432.72, 2901.972
432.92, 2344.105
433.13, 2494.836
433.34, 2882.721
433.54, 2859.784
433.75, 2478.861
433.95, 2571.430
434.16, 2963.001
434.37, 2600.101
434.57, 2511.219
434.78, 2478.042
434.98, 2558.732
435.19, 2712.739
435.39, 2394.485
435.60, 2443.636
435.81, 2920.813
436.01, 2496.474
436.22, 2471.489
436.42, 2457.153
436.63, 2641.061
436.83, 2890.913
437.04, 2449.371
437.24, 2455.924
437.45, 2654.577
437.66, 2755.747
437.86, 2385.064
438.07, 2340.419
438.27, 2757.385
438.48, 2809.813
438.68, 2500.160
438.89, 2460.020
439.09, 2865.108
439.30, 2616.075
439.50, 2483.776
439.71, 2440.360
439.92, 2741.411
440.12, 2636.965
440.33, 2352.297
440.53, 2534.157
440.74, 2573.068
440.94, 2793.020
441.15, 2629.592
441.35, 2399.400
441.56, 2779.094
441.76, 2781.961
441.97, 2384.245
442.17, 2469.031
442.38, 2750.012
442.58, 2848.315
442.79, 2420.289
443.00, 2471.079
443.20, 2654.168
443.41, 2719.293
443.61, 2341.647
443.82, 2521.459
444.02, 2652.939
444.23, 2390.389
444.43, 2547.673
444.64, 2571.430
444.84, 2918.355
445.05, 2588.633
445.25, 2523.917
445.46, 2407.592
445.66, 2581.669
445.87, 2651.710
446.07, 2404.725
446.28, 2509.171
446.48, 2759.843
446.69, 2579.212
446.89, 2466.574
447.10, 2509.581
447.30, 2908.935
447.51, 2779.913
447.71, 2627.544
447.92, 2445.275
448.12, 2709.463
448.33, 2772.540
448.53, 2364.994
448.73, 2545.625
448.94, 3096.119
449.14, 2656.215
449.35, 2488.692
449.55, 2463.297
449.76, 2931.872
449.96, 3029.765
450.17, 2481.319
450.37, 2432.168
450.58, 3100.625
450.78, 2555.455
450.99, 2328.131
451.19, 2615.256
451.40, 2608.703
451.60, 2615.256
451.81, 2346.972
452.01, 2418.242
452.21, 2873.710
452.42, 2688.573
452.62, 2419.470
452.83, 2472.717
453.03, 2856.097
453.24, 2782.780
453.44, 2610.751
453.65, 2403.087
453.85, 3221.455
454.06, 2820.872
454.26, 2482.548
454.46, 2568.562
454.67, 2935.149
454.87, 2756.976
455.08, 2605.426
455.28, 2574.297
455.49, 2720.112
455.69, 3252.994
455.89, 2559.961
456.10, 2313.795
456.30, 3101.853
456.51, 2821.282
456.71, 2430.529
456.92, 2500.979
457.12, 2904.839
457.32, 2645.976
457.53, 2641.060
457.73, 2558.323
457.94, 2990.444
458.14, 2605.426
458.35, 2321.577
458.55, 2403.496
458.75, 3006.828
458.96, 3023.211
459.16, 2203.614
459.37, 2472.717
459.57, 2484.596
459.77, 2935.558
459.98, 2448.961
460.18, 2497.293
460.39, 2949.485
460.59, 2581.260
460.79, 2236.791
461.00, 2401.858
461.20, 2811.042
461.41, 2986.758
461.61, 2371.138
461.81, 2544.396
462.02, 2704.957
462.22, 3000.684
462.43, 2460.430
462.63, 2353.526
462.83, 2987.167
463.04, 2874.529
463.24, 2405.544
463.45, 2385.474
463.65, 2624.267
463.85, 2855.278
464.06, 2303.555
464.26, 2720.522
464.46, 2693.898
464.67, 2920.403
464.87, 2444.046
465.08, 2426.843
465.28, 2825.787
465.48, 2712.330
465.69, 2380.968
465.89, 2456.334
466.09, 3147.728
466.30, 2978.566
466.50, 2425.205
466.71, 2419.061
466.91, 2958.086
467.11, 2924.909
467.32, 2507.943
467.52, 2469.850
467.72, 2666.046
467.93, 2594.367
468.13, 2528.013
468.33, 2323.216
468.54, 2799.164
468.74, 3164.931
468.94, 2611.979
469.15, 2542.348
469.35, 2605.016
469.55, 2685.297
469.76, 2482.138
469.96, 2454.286
470.17, 2864.699
470.37, 3105.540
470.57, 2429.710
470.78, 2440.360
470.98, 2900.333
471.18, 2917.536
471.39, 2475.994
471.59, 2638.603
471.79, 2651.710
471.99, 2521.459
472.20, 2443.227
472.40, 2407.182
472.60, 2557.094
472.81, 2652.529
473.01, 2509.581
473.21, 2504.256
473.42, 3123.152
473.62, 3021.164
473.82, 2469.850
474.03, 2797.525
474.23, 2619.762
474.43, 2908.116
474.64, 2291.267
474.84, 2543.577
475.04, 2763.529
475.25, 2822.511
475.45, 2378.920
475.65, 2482.548
475.85, 2499.341
476.06, 2917.127
476.26, 2560.780
476.46, 2460.430
476.67, 2680.791
476.87, 2761.481
477.07, 2362.127
477.28, 2486.644
477.48, 2870.433
477.68, 3020.344
477.88, 2239.249
478.09, 2455.924
478.29, 2682.839
478.49, 2979.795
478.70, 2340.828
478.90, 2576.345
479.10, 2647.204
479.30, 2969.555
479.51, 2415.784
479.71, 2317.072
479.91, 2857.326
480.11, 2895.418
480.32, 2562.828
480.52, 2574.706
480.72, 2722.570
480.93, 2611.160
481.13, 2193.784
481.33, 2398.581
481.53, 3005.189
481.74, 2807.356
481.94, 2340.009
482.14, 2482.138
482.34, 2740.592
482.55, 2799.164
482.75, 2565.286
482.95, 2379.330
483.15, 2822.511
483.36, 2489.101
483.56, 2607.064
483.76, 2383.426
483.96, 2748.784
484.17, 2900.333
484.37, 2430.529
484.57, 2483.367
484.77, 2754.928
484.98, 3062.942
485.18, 2469.441
485.38, 2504.256
485.58, 2706.186
485.79, 2862.241
485.99, 2253.994
486.19, 2533.337
486.39, 3059.256
486.59, 2494.016
486.80, 2532.928
487.00, 2461.249
487.20, 2863.470
487.40, 2774.178
487.61, 2503.027
487.81, 2383.836
488.01, 2964.230
488.21, 2760.252
488.41, 2588.223
488.62, 2579.621
488.82, 2634.507
489.02, 2651.710
489.22, 2459.201
489.43, 2479.271
489.63, 3017.068
489.83, 2652.529
490.03, 2381.788
490.23, 2313.386
490.44, 2514.086
490.64, 2809.404
490.84, 2473.127
491.04, 2494.426
491.24, 2691.850
491.45, 3065.809
491.65, 2630.821
491.85, 2487.053
492.05, 3329.588
492.25, 2850.772
492.45, 2568.153
492.66, 2413.736
492.86, 2648.433
493.06, 2835.208
493.26, 2605.426
493.46, 2486.234
493.67, 3278.388
493.87, 2507.943
494.07, 2626.725
494.27, 2386.293
494.47, 2549.721
494.67, 2818.005
494.88, 2491.968
495.08, 2485.005
495.28, 2731.581
495.48, 2715.607
495.68, 2421.518
495.89, 2411.278
496.09, 2496.474
496.29, 2770.492
496.49, 2637.784
496.69, 2499.751
496.89, 2460.430
497.09, 2802.850
497.30, 2474.765
497.50, 2441.179
497.70, 2827.426
497.90, 3139.126
498.10, 2549.312
498.30, 2874.529
498.51, 2782.370
498.71, 2711.101
498.91, 2256.862
499.11, 2534.976
499.31, 2932.282
499.51, 2897.466
499.71, 2400.629
499.92, 2446.094
500.12, 2813.909
500.32, 2754.108
500.52, 2616.075
500.72, 2276.932
500.92, 3043.691
501.12, 2870.433
501.32, 2207.710
501.53, 2427.662
501.73, 2892.141
501.93, 2822.101
502.13, 2272.426
502.33, 2219.589
502.53, 2697.994
502.73, 2835.208
502.93, 2257.271
503.14, 2507.123
503.34, 2644.337
503.54, 2735.677
503.74, 2451.828
503.94, 2376.053
504.14, 2871.252
504.34, 2832.341
504.54, 2428.072
504.74, 2405.954
504.95, 2845.857
505.15, 3029.765
505.35, 2386.293
505.55, 2376.463
505.75, 2794.249
505.95, 2818.415
506.15, 2532.928
506.35, 2457.972
506.55, 2723.798
506.75, 2819.234
506.95, 2446.503
507.16, 2552.998
507.36, 2898.285
507.56, 2964.640
507.76, 2438.312
507.96, 2576.345
508.16, 2552.998
508.36, 2792.201
508.56, 2521.050
508.76, 2474.765
508.96, 2779.913
509.16, 3176.809
509.36, 2403.087
509.57, 2571.020
509.77, 2704.548
509.97, 2657.854
510.17, 2491.968
510.37, 2473.127
510.57, 2591.909
510.77, 2578.802
510.97, 2463.706
511.17, 2412.098
511.37, 2951.533
511.57, 2878.215
511.77, 2423.566
511.97, 2396.943
512.17, 2976.518
512.37, 2987.986
512.57, 2388.751
512.78, 2459.201
512.98, 2660.721
513.18, 2480.500
513.38, 2434.216
513.58, 2469.850
513.78, 2913.850
513.98, 2761.891
514.18, 2632.869
514.38, 2286.762
514.58, 2256.862
514.78, 2595.596
514.98, 2510.810
515.18, 2537.024
515.38, 2684.887
515.58, 2600.920
515.78, 2377.282
515.98, 2536.614
516.18, 2856.097
516.38, 2978.156
516.58, 2436.673
516.78, 2287.172
516.98, 2512.038
517.18, 2762.710
517.38, 2449.780
517.58, 2464.526
517.78, 2628.773
517.98, 2937.606
518.18, 2465.754
518.38, 2423.157
518.58, 3074.411
518.78, 2690.621
518.98, 2545.216
519.18, 2432.577
519.38, 2769.673
519.58, 2685.297
519.78, 2423.566
519.98, 2546.035
520.18, 2695.946
520.38, 2726.256
520.58, 2523.917
520.78, 2455.515
520.98, 2732.400
521.18, 2865.518
521.38, 2514.906
521.58, 2507.533
521.78, 2925.728
521.98, 2760.252
522.18, 2452.238
522.38, 2627.134
522.58, 2392.847
522.78, 2769.673
522.98, 2637.374
523.18, 2393.666
523.38, 2683.658
523.58, 2629.592
523.78, 2342.057
523.98, 2441.588
524.18, 2729.942
524.38, 2714.787
524.58, 2400.629
524.78, 2477.223
524.98, 2742.640
525.18, 2705.367
525.38, 2540.710
525.58, 2598.463
525.78, 2836.846
525.98, 2818.005
526.18, 2423.157
526.38, 2414.965
526.58, 2742.230
526.78, 2586.994
526.98, 2666.865
527.17, 2258.910
527.37, 2636.145
527.57, 2619.352
527.77, 2342.876
527.97, 2455.105
528.17, 2482.138
528.37, 2793.839
528.57, 2469.031
528.77, 2440.769
528.97, 3059.256
529.17, 2853.640
529.37, 2493.607
529.57, 2514.496
529.77, 2643.108
529.97, 2963.820
530.17, 2636.555
530.36, 2527.603
530.56, 2864.699
530.76, 2580.031
530.96, 2608.293
531.16, 2390.389
531.36, 2899.514
531.56, 2975.699
531.76, 2378.101
531.96, 2379.330
532.16, 2713.968
532.36, 2686.935
532.56, 2385.064
532.76, 2506.304
532.95, 2686.935
533.15, 2739.363
533.35, 2539.481
533.55, 2442.408
533.75, 2943.750
533.95, 2772.130
534.15, 2426.433
534.35, 2575.116
534.55, 2799.164
534.75, 2699.223
534.94, 2356.393
535.14, 2453.467
535.34, 2734.857
535.54, 2694.308
535.74, 2617.304
535.94, 2371.138
536.14, 2663.179
536.34, 3180.495
536.54, 2638.603
536.73, 2470.669
536.93, 2802.850
537.13, 3076.459
537.33, 2675.466
537.53, 2448.551
537.73, 2642.699
537.93, 2640.651
538.13, 2706.596
538.32, 2596.005
538.52, 2525.145
538.72, 2612.389
538.92, 2629.592
539.12, 2408.411
539.32, 2976.518
539.52, 2885.998
539.72, 2494.836
539.91, 2324.035
540.11, 2641.470
540.31, 2728.304
540.51, 2374.825
540.71, 2627.134
540.91, 3109.226
541.11, 2579.212
541.30, 2384.245
541.50, 2265.053
541.70, 2548.492
541.90, 2715.197
542.10, 2290.039
542.30, 2398.171
542.49, 2836.846
542.69, 2721.750
542.89, 2300.688
543.09, 2406.773
543.29, 2990.854
543.49, 3012.152
543.68, 2589.042
543.88, 2511.629
544.08, 2873.300
544.28, 2757.795
544.48, 2640.241
544.68, 2413.736
544.87, 2908.116
545.07, 2834.389
545.27, 2443.227
545.47, 2426.433
545.67, 2685.297
545.87, 2709.053
546.06, 2369.500
546.26, 2361.308
546.46, 2658.263
546.66, 2703.728
546.86, 2915.488
547.05, 2354.345
547.25, 2970.783
547.45, 3170.665
547.65, 2419.061
547.85, 2263.825
548.04, 3008.056
548.24, 2964.230
548.44, 2496.064
548.64, 2569.791
548.84, 3063.761
549.03, 2574.297
549.23, 2405.544
549.43, 2491.149
549.63, 2658.263
549.83, 2815.957
550.02, 2462.068
550.22, 2460.430
550.42, 2749.193
550.62, 2891.732
550.82, 2276.112
551.01, 2485.005
551.21, 2729.533
551.41, 3135.850
551.61, 2363.766
551.80, 2503.027
552.00, 2711.101
552.20, 2860.603
552.40, 2338.780
552.60, 2496.884
552.79, 2906.068
552.99, 2774.178
553.19, 2597.644
553.39, 2338.371
553.58, 2790.562
553.78, 2474.765
553.98, 2650.072
554.18, 2336.732
554.37, 2455.515
554.57, 2788.105
554.77, 2568.153
554.97, 2561.190
555.16, 3003.551
555.36, 3291.495
555.56, 2437.492
555.76, 2418.242
555.95, 3238.658
556.15, 2743.459
556.35, 2536.614
556.55, 2520.640
556.74, 2420.289
556.94, 2702.909
557.14, 2376.463
557.34, 2516.134
557.53, 2784.828
557.73, 2761.481
557.93, 2478.861
558.13, 2379.330
558.32, 2733.219
558.52, 2734.038
558.72, 2298.640
558.92, 2498.522
559.11, 2804.898
559.31, 2816.776
559.51, 2561.190
559.70, 2433.396
559.90, 2759.024
560.10, 2563.647
560.30, 2351.887
560.49, 2579.621
560.69, 2678.334
560.89, 3010.924
561.08, 2387.112
561.28, 2408.002
561.48, 2701.680
561.68, 2835.618
561.87, 2454.286
562.07, 2429.301
562.27, 2539.891
562.46, 2807.765
562.66, 2473.127
562.86, 2403.906
563.05, 2687.754
563.25, 2541.939
563.45, 2323.216
563.65, 2721.341
563.84, 2898.695
564.04, 2703.728
564.24, 2484.186
564.43, 2412.507
564.63, 2911.802
564.83, 2824.149
565.02, 2394.485
565.22, 2482.548
565.42, 2569.791
565.61, 2796.706
565.81, 2437.492
566.01, 2618.123
566.20, 2659.902
566.40, 2490.740
566.60, 2427.662
566.79, 2362.127
566.99, 2895.009
567.19, 2741.411
567.38, 2544.396
567.58, 2427.662
567.78, 2680.381
567.97, 2597.644
568.17, 2201.976
568.37, 2474.765
568.56, 3019.935
568.76, 2675.057
568.96, 2458.382
569.15, 2548.492
569.35, 4049.653
569.55, 3062.532
569.74, 2383.016
569.94, 2560.371
570.14, 2863.060
570.33, 2770.083
570.53, 2350.249
570.73, 2351.068
570.92, 2548.902
571.12, 2708.234
571.31, 2188.050
571.51, 2389.980
571.71, 2777.455
571.90, 2993.311
572.10, 2327.721
572.30, 2366.633
572.49, 3042.053
572.69, 2904.839
572.88, 2498.522
573.08, 2285.533
573.28, 3121.514
573.47, 2777.865
573.67, 2330.588
573.87, 2390.799
574.06, 2706.186
574.26, 2798.754
574.45, 2397.352
574.65, 2291.267
574.85, 2981.023
575.04, 2729.533
575.24, 2603.378
575.44, 2349.020
575.63, 2821.691
575.83, 2493.197
576.02, 2345.743
576.22, 2394.485
576.42, 2914.260
576.61, 2686.116
576.81, 2351.478
577.00, 2543.577
577.20, 2831.931
577.40, 2794.249
577.59, 2256.862
577.79, 2466.164
577.98, 2714.378
578.18, 2614.846
578.37, 2504.666
578.57, 2285.943
578.77, 2509.581
578.96, 2484.186
579.16, 2277.751
579.35, 2262.596
579.55, 2551.359
579.75, 2493.607
579.94, 2399.810
580.14, 2300.688
580.33, 3083.831
580.53, 2689.393
580.72, 2356.802
580.92, 2498.112
581.12, 2682.429
581.31, 2729.533
581.51, 2516.134
581.70, 2417.013
581.90, 3356.621
582.09, 2487.872
582.29, 2288.810
582.48, 2414.555
582.68, 2797.116
582.88, 2887.226
583.07, 2345.743
583.27, 2222.456
583.46, 2806.536
583.66, 3019.116
583.85, 2509.171
584.05, 2476.404
584.24, 3173.123
584.44, 2897.876
584.63, 2376.053
584.83, 2340.419
585.03, 2860.603
585.22, 2596.005
585.42, 2186.411
585.61, 2389.980
585.81, 2654.577
586.00, 2701.271
586.20, 2303.965
586.39, 2340.419
586.59, 2611.979
586.78, 2585.356
586.98, 2437.083
587.17, 2514.496
587.37, 2838.894
587.56, 3001.093
587.76, 2439.540
587.95, 2438.721
588.15, 2646.385
588.34, 2917.536
588.54, 2353.116
588.74, 2437.492
588.93, 2435.444
589.13, 2823.739
589.32, 2389.980
589.52, 2206.891
589.71, 2960.134
589.91, 2819.234
590.10, 2256.042
590.30, 2380.149
590.49, 2707.005
590.69, 2883.950
590.88, 2334.684
591.08, 2314.614
591.27, 2794.658
591.47, 2479.681
591.66, 2383.426
591.85, 2313.795
592.05, 2899.514
592.24, 2949.894
592.44, 2293.315
592.63, 2220.408
592.83, 2842.171
593.02, 2685.706
593.22, 2258.090
593.41, 2158.149
593.61, 2586.175
593.80, 3360.717
594.00, 2268.740
594.19, 2327.312
594.39, 2733.629
594.58, 2531.699
594.78, 2388.751
594.97, 2437.902
595.17, 2738.953
595.36, 2875.758
595.56, 2354.345
595.75, 2380.559
595.94, 2824.558
596.14, 2920.813
596.33, 2344.515
596.53, 2204.434
596.72, 2731.171
596.92, 2776.636
597.11, 2337.552
597.31, 2552.998
597.50, 2843.809
597.69, 2985.529
597.89, 2437.083
598.08, 2269.969
598.28, 2892.961
598.47, 2797.935
598.67, 2354.345
598.86, 2413.736
599.06, 2927.776
599.25, 2685.297
599.44, 2455.105
599.64, 2415.784
599.83, 2746.326
600.03, 2703.728
600.22, 2247.850
600.42, 2495.245
600.61, 2608.293
600.80, 2612.389
601.00, 2476.813
601.19, 2381.378
601.39, 2948.665
601.58, 2665.636
601.78, 2385.474
601.97, 2379.330
602.16, 2739.773
602.36, 2616.485
602.55, 2419.880
602.75, 2308.880
602.94, 2908.116
603.13, 2945.798
603.33, 2300.278
603.52, 2373.186
603.72, 2904.020
603.91, 2569.791
604.10, 2425.205
604.30, 2364.994
604.49, 2783.599
604.69, 2732.810
604.88, 2206.072
605.07, 2418.242
605.27, 2669.322
605.46, 2498.112
605.66, 2473.127
605.85, 2378.511
606.04, 2837.666
606.24, 2907.706
606.43, 2125.792
606.62, 2341.238
606.82, 2666.455
607.01, 2799.164
607.21, 2293.725
607.40, 2503.847
607.59, 2735.677
607.79, 2611.979
607.98, 2489.920
608.17, 2232.696
608.37, 2811.452
608.56, 3229.647
608.76, 2131.935
608.95, 2322.806
609.14, 2976.108
609.34, 2648.433
609.53, 2352.706
609.72, 2267.101
609.92, 2660.311
610.11, 2736.086
610.30, 2322.397
610.50, 2358.850
610.69, 2427.662
610.88, 2766.806
611.08, 2360.898
611.27, 2219.998
611.46, 2890.913
611.66, 2630.821
611.85, 2230.648
612.04, 2423.976
612.24, 2871.252
612.43, 2661.540
612.62, 2238.430
612.82, 2384.655
613.01, 2614.846
613.20, 2793.020
613.40, 2394.075
613.59, 2262.186
613.78, 2794.249
613.98, 2417.832
614.17, 2302.326
614.36, 2347.791
614.56, 3644.975
614.75, 2645.156
614.94, 2319.120
615.14, 2291.267
615.33, 3001.093
615.52, 2953.990
615.72, 2262.186
615.91, 2467.393
616.10, 2733.219
616.30, 2773.359
616.49, 2464.116
616.68, 2404.725
616.88, 3132.573
617.07, 3025.669
617.26, 2247.031
617.45, 2389.570
617.65, 3127.658
617.84, 2453.467
618.03, 2245.803
618.23, 2352.297
618.42, 2815.138
618.61, 2604.607
618.80, 2351.478
619.00, 2307.242
619.19, 2956.448
619.38, 2755.337
619.58, 2339.600
619.77, 2353.116
619.96, 2974.470
620.15, 2661.950
620.35, 2502.208
620.54, 2381.788
620.73, 2677.514
620.93, 2853.230
621.12, 2244.574
621.31, 2399.810
621.50, 2562.418
621.70, 3232.104
621.89, 2256.042
622.08, 2139.308
622.27, 2830.702
622.47, 2931.872
622.66, 2235.972
622.85, 2338.371
623.04, 2741.411
623.24, 2652.120
623.43, 2387.522
623.62, 2361.718
623.81, 2786.466
624.01, 2867.566
624.20, 2264.234
624.39, 2510.400
624.58, 2594.367
624.78, 2703.728
624.97, 2302.736
625.16, 2308.470
625.35, 2759.843
625.55, 2816.776
625.74, 2369.090
625.93, 2387.112
626.12, 2629.182
626.32, 2571.839
626.51, 2262.186
626.70, 2314.614
626.89, 2738.953
627.09, 2666.046
627.28, 2278.980
627.47, 2350.659
627.66, 2935.149
627.85, 2800.392
628.05, 2242.935
628.24, 2324.035
628.43, 2907.296
628.62, 2929.005
628.82, 2287.581
629.01, 2512.858
629.20, 2840.123
629.39, 2863.060
629.58, 2200.338
629.78, 2344.105
629.97, 2659.083
630.16, 2666.455
630.35, 2374.825
630.54, 2369.500
630.74, 2590.680
630.93, 2580.031
631.12, 2264.234
631.31, 2169.618
631.50, 2795.068
631.70, 2953.581
631.89, 2213.035
632.08, 2412.098
632.27, 2479.681
632.46, 2880.263
632.65, 2435.035
632.85, 2249.898
633.04, 2720.522
633.23, 2931.053
633.42, 2365.404
633.61, 2333.865
633.81, 2777.455
634.00, 2715.607
634.19, 2390.389
634.38, 2362.127
634.57, 2689.393
634.76, 2547.264
634.96, 2236.382
635.15, 2304.784
635.34, 2874.119
635.53, 2920.813
635.72, 2401.039
635.91, 2169.618
636.11, 2849.544
636.30, 2847.496
636.49, 2380.149
636.68, 2274.064
636.87, 2507.533
637.06, 3214.901
637.26, 2326.493
637.45, 2332.636
637.64, 2638.193
637.83, 2749.603
638.02, 2242.935
638.21, 2413.736
638.40, 3107.997
638.60, 3111.274
638.79, 2450.190
638.98, 2208.529
639.17, 2841.352
639.36, 2521.869
639.55, 2397.352
639.74, 2372.777
639.93, 2674.647
640.13, 2811.452
640.32, 2297.002
640.51, 2301.507
640.70, 2887.226
640.89, 2786.466
641.08, 2361.718
641.27, 2292.906
641.46, 2811.042
641.66, 2889.684
641.85, 2305.194
642.04, 2245.803
642.23, 2922.451
642.42, 2657.444
642.61, 2344.515
642.80, 2249.898
642.99, 2688.573
643.18, 2981.023
643.38, 2365.814
643.57, 2371.548
643.76, 2561.599
643.95, 2964.640
644.14, 2419.880
644.33, 2449.780
644.52, 2988.396
644.71, 2669.322
644.90, 2284.304
645.09, 2298.231
645.29, 2797.935
645.48, 2731.990
645.67, 2516.544
645.86, 2466.983
646.05, 2847.086
646.24, 3010.514
646.43, 2256.042
646.62, 2390.799
646.81, 2620.171
647.00, 2726.256
647.19, 2223.275
647.38, 2366.633
647.57, 2793.429
647.77, 2851.592
647.96, 2358.441
648.15, 2302.736
648.34, 2888.455
648.53, 3035.090
648.72, 2324.445
648.91, 2535.385
649.10, 2908.935
649.29, 2414.965
649.48, 2265.053
649.67, 2376.463
649.86, 3042.872
650.05, 2437.902
650.24, 2379.330
650.43, 2549.312
650.62, 2740.182
650.81, 3044.101
651.01, 2244.983
651.20, 2358.850
651.39, 2875.758
651.58, 2974.060
651.77, 2229.009
651.96, 2385.474
652.15, 2847.905
652.34, 2671.780
652.53, 2443.636
652.72, 2350.249
652.91, 2942.522
653.10, 2847.496
653.29, 2289.629
653.48, 2278.980
653.67, 2876.986
653.86, 2663.998
654.05, 2269.969
654.24, 2324.035
654.43, 2650.891
654.62, 2625.086
654.81, 2312.157
655.00, 2349.020
655.19, 2688.983
655.38, 2881.082
655.57, 2272.426
655.76, 2431.758
655.95, 2790.153
656.14, 2505.485
656.33, 2382.607
656.52, 2366.633
656.71, 2646.795
656.90, 2691.441
657.09, 2298.231
657.28, 2272.426
657.47, 2792.610
657.66, 2822.101
657.85, 2276.112
658.04, 2413.326
658.23, 2552.998
658.42, 2870.433
658.61, 2337.142
658.80, 2272.426
658.99, 2734.038
659.18, 3230.876
659.37, 2222.046
659.56, 2376.053
659.75, 2737.725
659.94, 2670.961
660.13, 2186.411
660.32, 2404.315
660.51, 2811.452
660.70, 2683.249
660.89, 2487.872
661.08, 2215.493
661.27, 2882.311
661.46, 2723.798
661.65, 2393.256
661.84, 2390.799
662.03, 2760.252
662.22, 2892.551
662.41, 2273.245
662.60, 2259.729
662.78, 2652.529
662.97, 2940.474
663.16, 2301.507
663.35, 2326.083
663.54, 2726.256
663.73, 2966.688
663.92, 2340.009
664.11, 2320.349
664.30, 2681.201
664.49, 2935.968
664.68, 2311.747
664.87, 2329.769
665.06, 2739.773
665.25, 2685.297
665.44, 2317.481
665.63, 2274.474
665.82, 2781.142
666.01, 3155.510
666.19, 2283.895
666.38, 2387.112
666.57, 3066.219
666.76, 2666.046
666.95, 2413.326
667.14, 2261.777
667.33, 2612.799
667.52, 3075.639
667.71, 2405.954
667.90, 2556.684
668.09, 2963.001
668.28, 2600.511
668.46, 2271.607
668.65, 2479.681
668.84, 3098.577
669.03, 2507.123
669.22, 2215.083
669.41, 2388.751
669.60, 3131.754
669.79, 2526.784
669.98, 2427.253
670.17, 2265.053
670.35, 2789.743
670.54, 2700.042
670.73, 2297.411
670.92, 2405.134
671.11, 2832.341
671.30, 2431.348
671.49, 2320.349
671.68, 2261.367
671.87, 2888.046
672.05, 2930.234
672.24, 2252.766
672.43, 2419.880
672.62, 2663.179
672.81, 2896.237
673.00, 2368.681
673.19, 2268.740
673.38, 2643.518
673.57, 2656.625
673.75, 2468.212
673.94, 2328.950
674.13, 2743.049
674.32, 2641.060
674.51, 2366.223
674.70, 2316.253
674.89, 2381.378
675.07, 2796.706
675.26, 2566.924
675.45, 2392.437
675.64, 2869.614
675.83, 2815.957
676.02, 2464.116
676.21, 2650.481
676.39, 2810.223
676.58, 2492.788
676.77, 2145.042
676.96, 2271.607
677.15, 2721.341
677.34, 3008.466
677.52, 2369.909
677.71, 2301.917
677.90, 2703.728
678.09, 2826.606
678.28, 2295.363
678.47, 2471.079
678.65, 2729.533
678.84, 3073.182
679.03, 2271.197
679.22, 2285.124
679.41, 2624.677
679.60, 2570.201
679.78, 2437.492
679.97, 2366.633
680.16, 2931.462
680.35, 2899.924
680.54, 2630.821
680.73, 2231.057
680.91, 2691.031
681.10, 2830.293
681.29, 2412.098
681.48, 2410.869
681.67, 2880.263
681.85, 2661.540
682.04, 2298.231
682.23, 2374.415
682.42, 2594.776
682.61, 2446.913
682.79, 2385.474
682.98, 2437.492
683.17, 2720.931
683.36, 2595.596
683.55, 2436.264
683.73, 2472.717
683.92, 2639.013
684.11, 2762.710
684.30, 2521.869
684.49, 2452.647
684.67, 2600.920
684.86, 2571.839
685.05, 2360.079
685.24, 2385.884
685.42, 3077.278
685.61, 2676.695
685.80, 2414.146
685.99, 2510.400
686.18, 2734.857
686.36, 2638.193
686.55, 2550.950
686.74, 2446.913
686.93, 2780.732
687.11, 2882.311
687.30, 2210.987
687.49, 2180.268
687.68, 2746.326
687.86, 2754.108
688.05, 2399.810
688.24, 2348.201
688.43, 3070.315
688.61, 2755.337
688.80, 2339.600
688.99, 2295.773
689.18, 3084.651
689.36, 2895.418
689.55, 2355.983
689.74, 2189.688
689.93, 2774.178
690.11, 2752.060
690.30, 2317.481
690.49, 2349.839
690.68, 3099.806
690.86, 2645.156
691.05, 2265.053
691.24, 2350.659
691.43, 2718.883
691.61, 2964.230
691.80, 2355.983
691.99, 2290.448
692.17, 2840.533
692.36, 2755.337
692.55, 2423.976
692.74, 2242.116
692.92, 2612.799
693.11, 2656.215
693.30, 2477.223
693.49, 2262.186
693.67, 2619.762
693.86, 2758.204
694.05, 2383.836
694.23, 2403.087
694.42, 3071.134
694.61, 2602.149
694.79, 2358.850
694.98, 2337.142
695.17, 2888.046
695.36, 2383.836
695.54, 2444.455
695.73, 2242.526
695.92, 2771.311
696.10, 2916.308
696.29, 2236.791
696.48, 2455.105
696.66, 3239.477
696.85, 2519.411
697.04, 2263.825
697.22, 2321.577
697.41, 2938.426
697.60, 2539.481
697.79, 2315.024
697.97, 2327.721
698.16, 2951.942
698.35, 2682.839
698.53, 2315.024
698.72, 2327.721
698.91, 3108.817
699.09, 2746.326
699.28, 2407.592
699.47, 2431.758
699.65, 2533.747
699.84, 2919.994
700.03, 2421.518
700.21, 2333.046
700.40, 2520.230
700.59, 2693.898
700.77, 2427.662
700.96, 2336.732
701.15, 2927.776
701.33, 2947.846
701.52, 2202.795
701.70, 2359.260
701.89, 3054.750
702.08, 2640.241
702.26, 2288.810
702.45, 2201.566
702.64, 2411.278
702.82, 2678.743
703.01, 2421.518
703.20, 2276.522
703.38, 3082.603
703.57, 2588.632
703.76, 2371.957
703.94, 2372.777
704.13, 2636.965
704.31, 2449.780
704.50, 2507.533
704.69, 2488.282
704.87, 2642.699
705.06, 2675.466
705.25, 2383.426
705.43, 2264.644
705.62, 2762.710
705.80, 2807.765
705.99, 2419.880
706.18, 2299.869
706.36, 2688.983
706.55, 2583.308
706.73, 2312.566
706.92, 2324.854
707.11, 2852.001
707.29, 3030.175
707.48, 2488.692
707.66, 2360.898
707.85, 2545.216
708.04, 2647.204
708.22, 2381.788
708.41, 2359.670
708.59, 2972.422
708.78, 2752.470
708.97, 2109.408
709.15, 2386.293
709.34, 2791.791
709.52, 2706.596
709.71, 2292.496
709.90, 2256.862
710.08, 2936.787
710.27, 2431.348
710.45, 2332.636
710.64, 2262.186
710.82, 2847.086
711.01, 2619.352
711.20, 2374.825
711.38, 2226.961
711.57, 2645.566
711.75, 2488.282
711.94, 2477.223
712.12, 2414.146
712.31, 2667.274
712.50, 2890.913
712.68, 2274.884
712.87, 2473.537
713.05, 2702.090
713.24, 2477.223
713.42, 2302.326
713.61, 2300.278
713.79, 2874.529
713.98, 2528.013
714.17, 2300.278
714.35, 2348.611
714.54, 2634.097
714.72, 2588.632
714.91, 2369.909
715.09, 2451.419
715.28, 2494.836
715.46, 3026.898
715.65, 2273.245
715.83, 2295.363
716.02, 3025.669
716.21, 2837.256
716.39, 2351.068
716.58, 2246.212
716.76, 2693.898
716.95, 2899.105
717.13, 2312.566
717.32, 2296.183
717.50, 3097.758
717.69, 2914.260
717.87, 2314.614
718.06, 2342.467
718.24, 2557.913
718.43, 2842.171
718.61, 2392.847
718.80, 2376.873
718.98, 2759.024
719.17, 2805.717
719.35, 2449.371
719.54, 2372.367
719.72, 2607.883
719.91, 2763.119
720.09, 2223.684
720.28, 2416.194
720.46, 2754.928
720.65, 3137.898
720.83, 2295.363
721.02, 2430.529
721.20, 2943.341
721.39, 2701.680
721.57, 2312.976
721.76, 2522.688
721.94, 2790.972
722.13, 2699.632
722.31, 2435.444
722.50, 2431.348
722.68, 2629.182
722.87, 3020.754
723.05, 2306.832
723.24, 2981.433
723.42, 2572.658
723.61, 3038.366
723.79, 2253.994
723.98, 2268.740
724.16, 3042.462
724.34, 2547.264
724.53, 2461.658
724.71, 2555.865
724.90, 2680.791
725.08, 2852.411
725.27, 2301.507
725.45, 2252.356
725.64, 2518.182
725.82, 3053.112
726.01, 2164.703
726.19, 2267.101
726.38, 2621.810
726.56, 2511.219
726.74, 2480.909
726.93, 2308.470
727.11, 3330.407
727.30, 2694.717
727.48, 2346.563
727.67, 2400.219
727.85, 2810.223
728.04, 2976.518
728.22, 2386.293
728.40, 2412.098
728.59, 2764.758
728.77, 2741.821
728.96, 2285.533
729.14, 2333.046
729.33, 3304.193
729.51, 2822.101
729.69, 2497.293
729.88, 2278.980
730.06, 2815.138
730.25, 2765.167
730.43, 2349.020
730.61, 2410.459
730.80, 2739.773
730.98, 2969.555
731.17, 2391.208
731.35, 2311.747
731.54, 2663.588
731.72, 2890.094
731.90, 2278.160
732.09, 2370.319
732.27, 2967.916
732.46, 2933.920
732.64, 2308.880
732.82, 2333.046
733.01, 2774.178
733.19, 2856.507
733.38, 2126.201
733.56, 2444.046
733.74, 2816.776
733.93, 2933.920
734.11, 2336.323
734.29, 2248.670
734.48, 2833.979
734.66, 2700.452
734.85, 2234.334
735.03, 2263.005
735.21, 2742.230
735.40, 3072.772
735.58, 2382.197
735.77, 2315.843
735.95, 2899.514
736.13, 2621.400
736.32, 2271.197
736.50, 2443.636
736.68, 2609.931
736.87, 2973.241
737.05, 2413.736
737.23, 2418.651
737.42, 2832.750
737.60, 2691.031
737.79, 2380.968
737.97, 2311.747
738.15, 2917.536
738.34, 2738.544
738.52, 2423.976
738.70, 2460.839
738.89, 2925.728
739.07, 2653.758
739.25, 2506.304
739.44, 2382.197
739.62, 3045.739
739.80, 2594.776
739.99, 2229.009
740.17, 2412.917
740.35, 3114.141
740.54, 2933.510
740.72, 2310.518
740.90, 2273.245
741.09, 2522.278
741.27, 2729.942
741.45, 2437.083
741.64, 2279.799
741.82, 2885.178
742.00, 2703.728
742.19, 2393.256
742.37, 2395.304
742.55, 2650.891
742.74, 2747.964
742.92, 2324.445
743.10, 2533.337
743.29, 2959.315
743.47, 2986.758
743.65, 2339.190
743.83, 2491.559
744.02, 2755.337
744.20, 2610.751
744.38, 2254.814
744.57, 2316.253
744.75, 2539.072
744.93, 2673.828
745.12, 2365.404
745.30, 2348.201
745.48, 3289.038
745.66, 2520.640
745.85, 2269.149
746.03, 2294.954
746.21, 2972.012
746.40, 2786.057
746.58, 2449.780
746.76, 2292.906
746.94, 2992.492
747.13, 2833.979
747.31, 2302.736
747.49, 2448.961
747.68, 2781.142
747.86, 2920.403
748.04, 2323.625
748.22, 2306.013
748.41, 2926.547
748.59, 2943.341
748.77, 2263.005
748.95, 2424.795
749.14, 2627.134
749.32, 2807.356
749.50, 2358.850
749.68, 2219.589
749.87, 2660.311
750.05, 2765.167
750.23, 2352.297
750.42, 2386.293
750.60, 2708.234
750.78, 2660.311
750.96, 2475.585
751.15, 2512.038
751.33, 2474.765
751.51, 2953.171
751.69, 2341.238
751.87, 2346.153
752.06, 2564.466
752.24, 2752.470
752.42, 2320.758
752.60, 2315.843
752.79, 3036.318
752.97, 2868.795
753.15, 2301.098
753.33, 2383.426
753.52, 2696.356
753.70, 2734.038
753.88, 2303.965
754.06, 2472.717
754.24, 2670.142
754.43, 3018.296
754.61, 2350.659
754.79, 2293.725
754.97, 2626.725
755.16, 2908.525
755.34, 2456.334
755.52, 2463.297
755.70, 2791.791
755.88, 2541.939
756.07, 2323.216
756.25, 2330.998
756.43, 2888.455
756.61, 2522.278
756.79, 2441.588
756.98, 2282.256
757.16, 2788.514
757.34, 2533.747
757.52, 2310.928
757.70, 2364.585
757.89, 2919.584
758.07, 3301.326
758.25, 2367.042
758.43, 2256.452
758.61, 2812.271
758.80, 2832.341
758.98, 2446.913
759.16, 2352.707
759.34, 2896.647
759.52, 2674.238
759.70, 2378.920
759.89, 2352.297
760.07, 2691.031
760.25, 2732.810
760.43, 2227.780
760.61, 2398.581
760.79, 2604.197
760.98, 2689.802
761.16, 2353.116
761.34, 2426.024
761.52, 2415.374
761.70, 2769.673
761.88, 2370.319
762.07, 2270.788
762.25, 3049.016
762.43, 2729.123
762.61, 2336.732
762.79, 2255.633
762.97, 2699.223
763.15, 2572.249
763.34, 2210.577
763.52, 2264.234
763.70, 2981.433
763.88, 2883.130
764.06, 2465.754
764.24, 2267.101
764.42, 2847.905
764.61, 2637.374
764.79, 2218.360
764.97, 2350.659
765.15, 2536.204
765.33, 2934.330
765.51, 2364.175
765.69, 2590.680
765.87, 2911.392
766.06, 2901.972
766.24, 2251.127
766.42, 2208.120
766.60, 2798.754
766.78, 3039.595
766.96, 2495.655
767.14, 2351.478
767.32, 2910.164
767.50, 2545.625
767.69, 2376.053
767.87, 2451.419
768.05, 2990.854
768.23, 2666.455
768.41, 2555.046
768.59, 2275.703
768.77, 2787.695
768.95, 2744.278
769.13, 2319.939
769.32, 2304.374
769.50, 2843.809
769.68, 2854.049
769.86, 2402.677
770.04, 2274.884
770.22, 2436.673
770.40, 2753.289
770.58, 2265.463
770.76, 2271.607
770.94, 2993.311
771.12, 2537.024
771.30, 2301.917
771.49, 2486.644
771.67, 2814.319
771.85, 2760.662
772.03, 2351.478
772.21, 2374.415
772.39, 2696.356
772.57, 2909.344
772.75, 2237.201
772.93, 2426.024
773.11, 2950.713
773.29, 2822.511
773.47, 2371.548
773.65, 2472.717
773.83, 3009.285
774.01, 2609.112
774.19, 2378.920
774.38, 2542.348
774.56, 2972.831
774.74, 2903.200
774.92, 2306.422
775.10, 2381.788
775.28, 2573.478
775.46, 3070.724
775.64, 2286.762
775.82, 2290.858
776.00, 2447.732
776.18, 2602.559
776.36, 2260.548
776.54, 2548.083
776.72, 2706.186
776.90, 2810.223
777.08, 2328.131
777.26, 2433.806
777.44, 2693.079
777.62, 2872.071
777.80, 2314.205
777.98, 2376.873
778.16, 2682.020
778.34, 2849.134
778.52, 2502.618
778.70, 2382.197
778.88, 2689.802
779.06, 2527.193
779.24, 2317.481
779.42, 2461.249
779.60, 2994.540
779.78, 2790.562
779.96, 2264.234
780.14, 2341.647
780.32, 2784.009
780.50, 2940.474
780.68, 2371.548
780.86, 2346.153
781.04, 2797.935
781.22, 2636.965
781.40, 2460.020
781.58, 2321.987
781.76, 2737.725
781.94, 2845.857
782.12, 2417.013
782.30, 2519.411
782.48, 2852.001
782.66, 2833.979
782.84, 2394.895
783.02, 2462.478
783.20, 2875.758
783.38, 2953.990
783.56, 2255.633
783.74, 2286.762
783.92, 2607.883
784.10, 2829.474
784.28, 2394.075
784.46, 2383.426
784.64, 2770.083
784.82, 2753.289
785.00, 2286.762
785.18, 2292.087
785.36, 2969.555
785.54, 2424.385
785.72, 2383.016
785.90, 2361.718
786.08, 2546.035
786.26, 2657.444
786.43, 2443.636
786.61, 2405.134
786.79, 3155.510
786.97, 3100.215
787.15, 2392.027
787.33, 2292.087
787.51, 2604.197
787.69, 2975.289
787.87, 2359.260
788.05, 2338.780
788.23, 3368.499
788.41, 2675.876
788.59, 2460.839
788.77, 2400.219
788.95, 2801.212
789.13, 2777.046
789.30, 2388.751
789.48, 2287.581
789.66, 2840.533
789.84, 2805.717
790.02, 2338.780
790.20, 2112.685
790.38, 2867.566
790.56, 2662.769
790.74, 2317.891
790.92, 2414.146
791.10, 2899.924
791.28, 2953.171
791.45, 2580.031
791.63, 2189.279
791.81, 3159.606
791.99, 2864.699
792.17, 2296.592
792.35, 2366.223
792.53, 2389.570
792.71, 2904.429
792.89, 2279.799
793.07, 2507.533
793.24, 2700.452
793.42, 2983.890
793.60, 2336.323
793.78, 2362.946
793.96, 2704.957
794.14, 2759.843
794.32, 2354.754
794.50, 2395.304
794.67, 2790.562
794.85, 2691.850
795.03, 2426.024
795.21, 2415.374
795.39, 2775.817
795.57, 2815.547
795.75, 2417.832
795.93, 2432.168
796.10, 3134.621
796.28, 2661.950
796.46, 2279.389
796.64, 2366.633
796.82, 2977.747
797.00, 2922.861
797.18, 2371.957
797.35, 2316.662
797.53, 2751.241
797.71, 2814.728
797.89, 2541.120
798.07, 2378.101
798.25, 2754.928
798.43, 3000.274
798.60, 2388.341
798.78, 2402.267
798.96, 3089.566
799.14, 2573.887
799.32, 2245.393
799.50, 2402.677
799.67, 2684.068
799.85, 2785.238
800.03, 2424.385
800.21, 2440.360
800.39, 2832.750
800.57, 2885.588
800.74, 2379.740
800.92, 2376.053
801.10, 2681.610
801.28, 2528.422
801.46, 2254.814
801.64, 2326.902
801.81, 3053.931
801.99, 2669.732
802.17, 2413.736
802.35, 2420.289
802.53, 2693.898
802.70, 2194.603
802.88, 2309.290
803.06, 2251.946
803.24, 2903.200
803.42, 2827.835
803.59, 2308.470
803.77, 2190.917
803.95, 3140.765
804.13, 2880.673
804.31, 2391.618
804.48, 2364.175
804.66, 2903.610
804.84, 2543.987
805.02, 2438.312
805.20, 2449.371
805.37, 2698.404
805.55, 2772.130
805.73, 2387.112
805.91, 2432.577
806.08, 2903.200
806.26, 2749.603
806.44, 2315.024
806.62, 2234.334
806.80, 2758.204
806.97, 2683.249
807.15, 2403.496
807.33, 2505.895
807.51, 2885.178
807.68, 2316.662
807.86, 2365.813
808.04, 2325.264
808.22, 2779.503
808.39, 4452.694
808.57, 2355.164
808.75, 2388.341
808.93, 2767.215
809.10, 2539.891
809.28, 2382.197
809.46, 2340.009
809.64, 2985.119
809.81, 2575.116
809.99, 2396.533
810.17, 2204.434
810.35, 3325.082
810.52, 2744.688
810.70, 2353.526
810.88, 2383.426
811.06, 2759.433
811.23, 3016.248
811.41, 2300.278
811.59, 2139.718
811.77, 2980.204
811.94, 2560.371
812.12, 2518.182
812.30, 2384.655
812.47, 2859.374
812.65, 2962.182
812.83, 2423.157
813.01, 2361.718
813.18, 2613.208
813.36, 2849.953
813.54, 2253.175
813.71, 2377.692
813.89, 3254.222
814.07, 2887.226
814.25, 2483.367
814.42, 2392.027
814.60, 3123.562
814.78, 2904.429
814.95, 2209.349
815.13, 2475.175
815.31, 2692.669
815.49, 2969.555
815.66, 2358.031
815.84, 2423.566
816.02, 2953.171
816.19, 2744.278
816.37, 2477.223
816.55, 2462.887
816.72, 3024.850
816.90, 2620.990
817.08, 2272.426
817.25, 2327.721
817.43, 2957.676
817.61, 2670.551
817.78, 2482.548
817.96, 2529.651
818.14, 2559.142
818.31, 2907.706
818.49, 2382.607
818.67, 2310.518
818.84, 2574.706
819.02, 2514.906
819.20, 2264.644
819.37, 2415.784
819.55, 2700.861
819.73, 2909.344
819.90, 2377.282
820.08, 2656.215
820.26, 2906.477
820.43, 2985.529
820.61, 2471.079
820.79, 2338.371
820.96, 2783.190
821.14, 2661.540
821.32, 2406.363
821.49, 2344.515
821.67, 2708.234
821.85, 2708.643
822.02, 2364.994
822.20, 2378.511
822.37, 3025.669
822.55, 2482.138
822.73, 2536.614
822.90, 2445.275
823.08, 3093.662
823.26, 2652.939
823.43, 2549.721
823.61, 2410.459
823.78, 2926.138
823.96, 2552.588
824.14, 2466.574
824.31, 2365.404
824.49, 3069.905
824.67, 3090.794
824.84, 2408.411
825.02, 2417.832
825.19, 2869.204
825.37, 3209.167
825.55, 2442.817
825.72, 2346.563
825.90, 2553.817
826.07, 2682.429
826.25, 2534.976
826.43, 2290.858
826.60, 2420.699
826.78, 2779.094
826.95, 2336.732
827.13, 2288.400
827.31, 3092.023
827.48, 2911.392
827.66, 2347.791
827.83, 2614.027
828.01, 2718.064
828.19, 2755.337
828.36, 2367.452
828.54, 2542.348
828.71, 2632.459
828.89, 2695.536
829.06, 2312.157
829.24, 2648.843
829.42, 2680.791
829.59, 2967.097
829.77, 2448.551
829.94, 2376.873
830.12, 2778.684
830.29, 2586.994
830.47, 2349.430
830.65, 2290.448
830.82, 3094.481
831.00, 2711.920
831.17, 2323.216
831.35, 2390.799
831.52, 2772.950
831.70, 2809.404
831.87, 2195.422
832.05, 2229.828
832.23, 2761.891
832.40, 2750.832
832.58, 2523.098
832.75, 2372.367
832.93, 2691.031
833.10, 2630.411
833.28, 2494.016
833.45, 2363.766
833.63, 2865.108
833.80, 2463.297
833.98, 2396.533
834.15, 2473.946
834.33, 2811.452
834.51, 2811.861
834.68, 2259.729
834.86, 2239.659
835.03, 2691.441
835.21, 2795.887
835.38, 2375.644
835.56, 2380.149
835.73, 2830.702
835.91, 2957.676
836.08, 2272.017
836.26, 2453.057
836.43, 2768.444
836.61, 2861.832
836.78, 2344.105
836.96, 2254.404
837.13, 3218.588
837.31, 2908.116
837.48, 2482.548
837.66, 2286.352
837.83, 2838.075
838.01, 2883.950
838.18, 2149.958
838.36, 2145.452
838.53, 2666.455
838.71, 3098.577
838.88, 2211.397
839.06, 2277.751
839.23, 2817.595
839.41, 2776.226
839.58, 2263.415
839.76, 2115.961
839.93, 2965.459
840.11, 2924.090
840.28, 2228.190
840.46, 2320.758
840.63, 2575.935
840.81, 2731.990
840.98, 2177.400
841.15, 2222.046
841.33, 2859.784
841.50, 2661.540
841.68, 2292.496
841.85, 2305.603
842.03, 3104.721
842.20, 3014.610
842.38, 2183.544
842.55, 2167.980
842.73, 2849.953
842.90, 2666.455
843.08, 2278.980
843.25, 2411.688
843.42, 2760.662
843.60, 2951.123
843.77, 2161.836
843.95, 2214.673
844.12, 2446.094
844.30, 2992.492
844.47, 2176.991
844.64, 2141.766
844.82, 3250.126
844.99, 2754.108
845.17, 2281.437
845.34, 2104.493
845.52, 2779.913
845.69, 2938.016
845.87, 2287.581
846.04, 2192.555
846.21, 2801.212
846.39, 2847.496
846.56, 2286.762
846.74, 2212.216
846.91, 2756.566
847.08, 2711.511
847.26, 2121.286
847.43, 2229.009
847.61, 2750.422
847.78, 3151.824
847.95, 2274.064
848.13, 2163.884
848.30, 2827.016
848.48, 2725.437
848.65, 2269.149
848.83, 2263.415
849.00, 2662.359
849.17, 2805.717
849.35, 2252.766
849.52, 2125.382
849.69, 2892.551
849.87, 2687.345
850.04, 2146.681
850.22, 2091.386
850.39, 2726.256
850.56, 3009.285
850.74, 2106.541
850.91, 2145.042
851.09, 2625.906
851.26, 2849.953
851.43, 2051.655
851.61, 2282.666
851.78, 2641.880
851.95, 2738.953
852.13, 2159.788
852.30, 2077.050
852.48, 3311.565
852.65, 2809.813
852.82, 2120.876
853.00, 2165.522
853.17, 2940.064
853.34, 2458.791
853.52, 2219.998
853.69, 2045.102
853.86, 2985.119
854.04, 2836.846
854.21, 2251.946
854.38, 2151.596
854.56, 2624.677
854.73, 2593.138
854.90, 2250.308
855.08, 2180.268
855.25, 2899.105
855.42, 2410.869
855.60, 2309.699
855.77, 2235.153
855.95, 2833.979
856.12, 2901.972
856.29, 2097.120
856.46, 2262.186
856.64, 2697.175
856.81, 2844.219
856.98, 2265.053
857.16, 2206.482
857.33, 2567.743
857.50, 2914.669
857.68, 2152.006
857.85, 2231.876
858.02, 2622.629
858.20, 2677.105
858.37, 2229.009
858.54, 2103.674
858.72, 3852.639
858.89, 3055.979
859.06, 2183.544
859.24, 2151.186
859.41, 2898.695
859.58, 2903.200
859.75, 2217.950
859.93, 2177.810
860.10, 2863.470
860.27, 2926.957
860.45, 2218.769
860.62, 2264.644
860.79, 2815.547
860.97, 2866.337
861.14, 2241.297
861.31, 2276.112
861.48, 2805.717
861.66, 2562.828
861.83, 2121.696
862.00, 2146.271
862.17, 2566.514
862.35, 2928.186
862.52, 2150.367
862.69, 2311.747
862.87, 2893.370
863.04, 2850.772
863.21, 2128.249
863.38, 2220.408
863.56, 2878.625
863.73, 2686.116
863.90, 2182.725
864.07, 2428.891
864.25, 3128.887
864.42, 2658.673
864.59, 2106.131
864.76, 2150.777
864.94, 3010.514
865.11, 2642.289
865.28, 2081.146
865.45, 2192.555
865.63, 2774.998
865.80, 2582.898
865.97, 2204.843
866.14, 2118.419
866.32, 2892.141
866.49, 2657.854
866.66, 2332.636
866.83, 2145.042
867.01, 2696.356
867.18, 2707.824
867.35, 2043.054
867.52, 2083.194
867.70, 3055.160
867.87, 3162.473
868.04, 2118.419
868.21, 2140.537
868.38, 2876.986
868.56, 3047.787
868.73, 2217.950
868.90, 2141.356
869.07, 2708.643
869.24, 2942.522
869.42, 2192.146
869.59, 2380.149
869.76, 3088.337
869.93, 2639.832
870.11, 2326.902
870.28, 2215.902
870.45, 3105.130
870.62, 2859.784
870.79, 2226.552
870.97, 2297.002
871.14, 2936.378
871.31, 2891.732
871.48, 2250.308
871.65, 2403.496
871.82, 3124.381
872.00, 2878.215
872.17, 2159.788
872.34, 2281.028
872.51, 2718.883
872.68, 2846.677
872.86, 2387.112
873.03, 2195.013
873.20, 2845.857
873.37, 3291.905
873.54, 2163.065
873.71, 2222.046
873.89, 3185.820
874.06, 2916.308
874.23, 2179.039
874.40, 2278.570
874.57, 3216.949
874.74, 2804.488
874.92, 2269.149
875.09, 2100.806
875.26, 3049.835
875.43, 2898.285
875.60, 2186.411
875.77, 2256.042
875.95, 2619.762
876.12, 2853.640
876.29, 2148.319
876.46, 2340.419
876.63, 2710.282
876.80, 2884.769
876.97, 2424.385
877.15, 2165.522
877.32, 2999.865
877.49, 2698.813
877.66, 2542.758
877.83, 2297.821
878.00, 2609.522
878.17, 3250.126
878.34, 2217.541
878.52, 2278.980
878.69, 2801.621
878.86, 2546.854
879.03, 2123.744
879.20, 2142.175
879.37, 2843.400
879.54, 3270.606
879.71, 2088.519
879.89, 2230.238
880.06, 3101.034
880.23, 2786.466
880.40, 2270.788
880.57, 2330.998
880.74, 2752.060
880.91, 3103.082
881.08, 2303.555
881.25, 2373.596
881.42, 3006.418
881.60, 2665.227
881.77, 2209.758
881.94, 2169.208
882.11, 2692.669
882.28, 2883.950
882.45, 2179.858
882.62, 2260.548
882.79, 3080.145
882.96, 2839.304
883.13, 2117.190
883.30, 2471.079
883.48, 2932.282
883.65, 2738.544
883.82, 2122.515
883.99, 2164.293
884.16, 3052.293
884.33, 2663.998
884.50, 2249.898
884.67, 2363.356
884.84, 2837.666
885.01, 2700.452
885.18, 2309.699
885.35, 2226.961
885.52, 2459.201
885.69, 2762.710
885.87, 2197.061
886.04, 2200.747
886.21, 2906.477
886.38, 2947.846
886.55, 2170.437
886.72, 2217.131
886.89, 3000.684
887.06, 2728.714
887.23, 2250.308
887.40, 2284.714
887.57, 2836.027
887.74, 2858.145
887.91, 2075.002
888.08, 2167.161
888.25, 2944.569
888.42, 3263.233
888.59, 2257.681
888.76, 2191.327
888.93, 2794.658
889.10, 2553.817
889.27, 2265.873
889.44, 2277.341
889.61, 2695.127
889.78, 2749.603
889.95, 2410.459
890.12, 2405.544
890.29, 2993.721
890.46, 2740.182
890.63, 2154.873
890.80, 2201.566
890.97, 2717.245
891.15, 2921.632
891.32, 2221.227
891.49, 2319.120
891.66, 3171.075
891.83, 2793.020
892.00, 2330.998
892.17, 2317.481
892.34, 2915.488
892.51, 2930.234
892.68, 2275.703
892.84, 2191.736
893.01, 2618.942
893.18, 2895.828
893.35, 2269.559
893.52, 2157.740
893.69, 2917.946
##END=
##TITLE= SPECTRASUITE EXPORTED SPECTRA: REFERENCE SPECTRUM
##JCAMP-DX= 5 $$EXPORTED SPECTRASUITE FILE
##DATA TYPE= UV/VIS SPECTRUM
##SAMPLE DESCRIPTION= REFERENCE SPECTRUM
##BLOCK_ID=3
##ORIGIN= OCEANOPTICS EXPORT
##OWNER= hugo
##SPECTROMETER/DATA SYSTEM= OCEANOPTICS EXPORT
##DATA PROCESSING= DARK:Yes REFERENCE:Yes
##DATA PROCESSING= BOXCAR:0 ELECTRICAL DARK: false
##.ACQUISITION TIME= 400
##.AVERAGES= 6
##XUNITS= NANOMETERS
##YUNITS= Transmission (%)
##XFACTOR= 1.0
##YFACTOR= 1.0
##FIRSTX= 176.36
##LASTX= 893.69
##FIRSTY= 32822.795
##MINY= 1597.074
##MAXY= 32822.795
##NPOINTS= 3648
##XYPOINTS= (XY..XY)
176.36, 32822.795
176.58, 32822.795
176.80, 32822.795
177.02, 1599.805
177.24, 1597.074
177.47, 2517.636
177.69, 2503.642
177.91, 2955.902
178.13, 2615.939
178.35, 2364.721
178.57, 2359.601
178.79, 2643.245
179.01, 2668.845
179.23, 2275.976
179.46, 2368.135
179.68, 2611.160
179.90, 2523.439
180.12, 2196.105
180.34, 2342.876
180.56, 2540.164
180.78, 2854.527
181.00, 2223.411
181.22, 2408.753
181.44, 2590.680
181.66, 2696.151
181.89, 2359.260
182.11, 2236.382
182.33, 2666.797
182.55, 3088.337
182.77, 2375.302
182.99, 2487.258
183.21, 2338.780
183.43, 2612.525
183.65, 2306.013
183.87, 2173.919
184.09, 2821.760
184.31, 2762.369
184.53, 2195.081
184.76, 2247.304
184.98, 2563.033
185.20, 2886.271
185.42, 2359.943
185.64, 2261.981
185.86, 2916.308
186.08, 3200.292
186.30, 2228.873
186.52, 2210.441
186.74, 2768.171
186.96, 2720.726
187.18, 2306.013
187.40, 2217.268
187.62, 2893.439
187.84, 2925.523
188.06, 2340.828
188.28, 2307.378
188.51, 2849.749
188.73, 2876.031
188.95, 2313.863
189.17, 2392.028
189.39, 2729.601
189.61, 2731.990
189.83, 2372.572
190.05, 2355.847
190.27, 2961.704
190.49, 2753.835
190.71, 2200.884
190.93, 2249.694
191.15, 2374.620
191.37, 2758.614
191.59, 2312.157
191.81, 2441.520
192.03, 2686.594
192.25, 2784.896
192.47, 2200.201
192.69, 2304.306
192.91, 2703.660
193.13, 2802.304
193.35, 2213.854
193.57, 2394.417
193.79, 2539.823
194.01, 2922.110
194.23, 2315.911
194.45, 2250.035
194.67, 2892.073
194.89, 2476.677
195.11, 2215.561
195.33, 2118.624
195.55, 2611.160
195.77, 2726.870
195.99, 2340.146
196.21, 2313.522
196.43, 2789.333
196.65, 2567.470
196.87, 2434.011
197.09, 2302.941
197.31, 2889.001
197.53, 2893.439
197.75, 2343.218
197.97, 2365.063
198.19, 2868.863
198.41, 3050.108
198.63, 2280.413
198.85, 2325.127
199.07, 2859.647
199.29, 2501.935
199.51, 2308.402
199.73, 2445.957
199.95, 2538.457
200.17, 2740.524
200.39, 2357.212
200.61, 2352.092
200.83, 2513.540
201.05, 2804.693
201.27, 2235.699
201.49, 2340.487
201.71, 2907.092
201.93, 2837.119
202.15, 2239.112
202.37, 2275.293
202.59, 2745.643
202.81, 2636.418
203.03, 2408.070
203.25, 2371.206
203.47, 2634.370
203.69, 2679.767
203.91, 2358.236
204.13, 2166.068
204.35, 2522.415
204.57, 2945.662
204.79, 2250.035
205.01, 2213.172
205.23, 2924.841
205.45, 2669.869
205.67, 2115.210
205.89, 2308.743
206.10, 2880.127
206.32, 2441.179
206.54, 2201.566
206.76, 2314.887
206.98, 2696.151
207.20, 2621.400
207.42, 2331.954
207.64, 2191.668
207.86, 2485.210
208.08, 3160.698
208.30, 2244.574
208.52, 2238.430
208.74, 2886.953
208.96, 2870.228
209.18, 2129.546
209.40, 2491.354
209.62, 2597.166
209.83, 2684.204
210.05, 2208.734
210.27, 2267.443
210.49, 2669.869
210.71, 2530.265
210.93, 2340.146
211.15, 2351.068
211.37, 2487.941
211.59, 2543.236
211.81, 2166.751
212.03, 2201.566
212.25, 2758.955
212.47, 2603.651
212.68, 2257.203
212.90, 2312.839
213.12, 2636.077
213.34, 2875.689
213.56, 2191.668
213.78, 2256.862
214.00, 2987.304
214.22, 2455.515
214.44, 2319.325
214.66, 2308.061
214.88, 2589.315
215.09, 2730.284
215.31, 2073.910
215.53, 2338.780
215.75, 2767.488
215.97, 2504.666
216.19, 2333.660
216.41, 2405.339
216.63, 2565.422
216.85, 2923.134
217.06, 2375.985
217.28, 2269.832
217.50, 2502.618
217.72, 2863.060
217.94, 2327.516
218.16, 2200.542
218.38, 2505.348
218.60, 2536.751
218.82, 2280.413
219.03, 2314.887
219.25, 2696.151
219.47, 2739.500
219.69, 2256.179
219.91, 2334.002
220.13, 3020.754
220.35, 2722.774
220.57, 2279.389
220.78, 2534.703
221.00, 2744.961
221.22, 2804.011
221.44, 2307.037
221.66, 2155.487
221.88, 2957.950
222.10, 2399.878
222.31, 2157.194
222.53, 2191.327
222.75, 2485.551
222.97, 2554.158
223.19, 2293.042
223.41, 2342.876
223.63, 2544.260
223.84, 3028.263
224.06, 2299.869
224.28, 2308.061
224.50, 2826.880
224.72, 2646.317
224.94, 2242.867
225.16, 2329.223
225.37, 3022.802
225.59, 2693.420
225.81, 2273.245
226.03, 2342.194
226.25, 2911.870
226.47, 2556.548
226.68, 2285.874
226.90, 2325.810
227.12, 2570.201
227.34, 2845.311
227.56, 2239.112
227.78, 2232.969
227.99, 2649.730
228.21, 2700.588
228.43, 2398.854
228.65, 2360.967
228.87, 2721.068
229.09, 2587.609
229.30, 2347.996
229.52, 2174.943
229.74, 2741.889
229.96, 2929.961
230.18, 2296.114
230.39, 2271.539
230.61, 2727.553
230.83, 2647.682
231.05, 2209.076
231.27, 2348.338
231.49, 2498.181
231.70, 2812.544
231.92, 2259.934
232.14, 2226.483
232.36, 2533.679
232.58, 2815.957
232.79, 2190.303
233.01, 2279.731
233.23, 2671.917
233.45, 2606.382
233.67, 2232.969
233.88, 2295.090
234.10, 2967.165
234.32, 2889.684
234.54, 2280.072
234.75, 2245.939
234.97, 2756.907
235.19, 2930.302
235.41, 2300.552
235.63, 2318.983
235.84, 2982.866
236.06, 2506.714
236.28, 2231.262
236.50, 2203.273
236.72, 2439.472
236.93, 2539.481
237.15, 2291.677
237.37, 2211.465
237.59, 2729.942
237.80, 2541.871
238.02, 2245.256
238.24, 2229.897
238.46, 2850.431
238.67, 2961.363
238.89, 2360.625
239.11, 2339.463
239.33, 2550.404
239.55, 2547.332
239.76, 2357.553
239.98, 2200.884
240.20, 2700.929
240.42, 2630.957
240.63, 2319.666
240.85, 2314.205
241.07, 2738.476
241.29, 2857.258
241.50, 2211.465
241.72, 2367.452
241.94, 2602.627
242.16, 3021.437
242.37, 2273.928
242.59, 2253.448
242.81, 2389.297
243.03, 2834.047
243.24, 2233.993
243.46, 2382.812
243.68, 2865.791
243.90, 2504.666
244.11, 2216.585
244.33, 2210.441
244.55, 2629.251
244.76, 2613.208
244.98, 2360.625
245.20, 2175.284
245.42, 2722.433
245.63, 2587.950
245.85, 2198.494
246.07, 2250.376
246.29, 2747.350
246.50, 2755.883
246.72, 2341.170
246.94, 2379.398
247.15, 2649.730
247.37, 2959.656
247.59, 2214.196
247.81, 2380.422
248.02, 2665.090
248.24, 2800.597
248.46, 2291.336
248.67, 2211.806
248.89, 2806.400
249.11, 2853.503
249.33, 2378.374
249.54, 2261.640
249.76, 2628.227
249.98, 2419.675
250.19, 2253.107
250.41, 2199.518
250.63, 2721.750
250.84, 2547.332
251.06, 2288.946
251.28, 2352.092
251.50, 2407.729
251.71, 2645.634
251.93, 2270.173
252.15, 2238.089
252.36, 2551.428
252.58, 3082.193
252.80, 2291.677
253.01, 2511.834
253.23, 2800.256
253.45, 2606.382
253.66, 2293.042
253.88, 2327.516
254.10, 2574.297
254.31, 2792.405
254.53, 2142.517
254.75, 2358.236
254.97, 2941.224
255.18, 2707.415
255.40, 2316.935
255.62, 2249.011
255.83, 2498.522
256.05, 2751.446
256.27, 2268.125
256.48, 2325.469
256.70, 2754.859
256.92, 2743.937
257.13, 2417.968
257.35, 2198.153
257.57, 2898.558
257.78, 2684.204
258.00, 2427.526
258.21, 2422.064
258.43, 2887.636
258.65, 2722.433
258.86, 2268.467
259.08, 2292.360
259.30, 2856.234
259.51, 2966.141
259.73, 2150.367
259.95, 2407.046
260.16, 2802.645
260.38, 2954.536
260.60, 2183.817
260.81, 2309.085
261.03, 2717.996
261.25, 2463.706
261.46, 2283.826
261.68, 2237.406
261.89, 2594.776
262.11, 2631.640
262.33, 2292.360
262.54, 2074.934
262.76, 2776.704
262.98, 2737.793
263.19, 2208.393
263.41, 2281.437
263.62, 2631.640
263.84, 2726.188
264.06, 2313.522
264.27, 2299.528
264.49, 2653.144
264.71, 2702.636
264.92, 2370.865
265.14, 2375.302
265.35, 2773.974
265.57, 2743.595
265.79, 2273.245
266.00, 2366.428
266.22, 2946.344
266.43, 2507.396
266.65, 2394.758
266.87, 2199.177
267.08, 2417.968
267.30, 2419.675
267.51, 2445.616
267.73, 2352.092
267.95, 3026.898
268.16, 2551.769
268.38, 2339.463
268.59, 2431.963
268.81, 2789.675
269.03, 2870.228
269.24, 2284.509
269.46, 2371.206
269.67, 2719.361
269.89, 2651.437
270.11, 2373.596
270.32, 2395.782
270.54, 2667.479
270.75, 3138.512
270.97, 2236.041
271.19, 2274.611
271.40, 2641.880
271.62, 2507.396
271.83, 2205.321
272.05, 2215.561
272.26, 2748.033
272.48, 2800.939
272.70, 2485.210
272.91, 2419.675
273.13, 2883.881
273.34, 2865.450
273.56, 2427.526
273.77, 2440.496
273.99, 3076.732
274.21, 3188.687
274.42, 2597.166
274.64, 2459.269
274.85, 2735.745
275.07, 2608.771
275.28, 2417.627
275.50, 2532.655
275.71, 2595.118
275.93, 2579.417
276.15, 2559.278
276.36, 2453.467
276.58, 2935.422
276.79, 2674.989
277.01, 2522.756
277.22, 2550.404
277.44, 3293.475
277.65, 2961.021
277.87, 2544.942
278.08, 2484.869
278.30, 3221.455
278.52, 2785.237
278.73, 2594.094
278.95, 2431.963
279.16, 2632.664
279.38, 2797.867
279.59, 2671.917
279.81, 2432.987
280.02, 3006.077
280.24, 3099.259
280.45, 2577.369
280.67, 2439.472
280.88, 2836.437
281.10, 3019.047
281.31, 2647.000
281.53, 2583.513
281.74, 2908.457
281.96, 2733.697
282.17, 2520.708
282.39, 2525.487
282.60, 2638.125
282.82, 2798.891
283.04, 2557.572
283.25, 2560.302
283.47, 2863.060
283.68, 2905.044
283.90, 2655.533
284.11, 2536.068
284.33, 2659.287
284.54, 2794.112
284.76, 2528.559
284.97, 2674.647
285.19, 2792.405
285.40, 3032.700
285.62, 2710.828
285.83, 2559.620
286.05, 2908.116
286.26, 2872.276
286.48, 2638.125
286.69, 2664.407
286.91, 2710.145
287.12, 3192.101
287.33, 2522.756
287.55, 2539.823
287.76, 3083.558
287.98, 3004.370
288.19, 2892.756
288.41, 2436.400
288.62, 2902.996
288.84, 2949.758
289.05, 2501.594
289.27, 2513.882
289.48, 3070.588
289.70, 2745.985
289.91, 2742.230
290.13, 2636.418
290.34, 2993.789
290.56, 2984.573
290.77, 2668.845
290.99, 2645.976
291.20, 2800.597
291.41, 2870.911
291.63, 2666.797
291.84, 2786.944
292.06, 3035.090
292.27, 2904.020
292.49, 2656.898
292.70, 2879.444
292.92, 3086.630
293.13, 3175.034
293.35, 2737.793
293.56, 2769.878
293.77, 2832.341
293.99, 3240.569
294.20, 2700.929
294.42, 2765.099
294.63, 3184.250
294.85, 3321.805
295.06, 2744.619
295.28, 2751.787
295.49, 2753.835
295.70, 3336.482
295.92, 2793.088
296.13, 2925.865
296.35, 3328.973
296.56, 3083.558
296.78, 2724.481
296.99, 2819.029
297.20, 3106.427
297.42, 3306.104
297.63, 2845.311
297.85, 2790.016
298.06, 3019.389
298.28, 3215.652
298.49, 2810.837
298.70, 2900.948
298.92, 3377.783
299.13, 3416.353
299.35, 2943.614
299.56, 2899.582
299.77, 3000.957
299.99, 3128.272
300.20, 3008.125
300.42, 2889.001
300.63, 3272.995
300.85, 3448.779
301.06, 3085.948
301.27, 2985.256
301.49, 3230.329
301.70, 3421.473
301.92, 3058.983
302.13, 3010.855
302.34, 3260.025
302.56, 3448.438
302.77, 3043.282
302.99, 3045.330
303.20, 3309.859
303.41, 3343.992
303.63, 3082.876
303.84, 2984.232
304.05, 3147.045
304.27, 3369.933
304.48, 3172.986
304.70, 2992.424
304.91, 3614.665
305.12, 3404.748
305.34, 3013.245
305.55, 3102.331
305.77, 3156.603
305.98, 3535.818
306.19, 3146.704
306.41, 3252.174
306.62, 3306.104
306.83, 3595.892
307.05, 3233.060
307.26, 3177.765
307.47, 3747.100
307.69, 3750.513
307.90, 3194.831
308.12, 3279.481
308.33, 3562.783
308.54, 3859.056
308.76, 3129.979
308.97, 3323.171
309.18, 3713.991
309.40, 3434.102
309.61, 3408.844
309.82, 3291.768
310.04, 3579.849
310.25, 3853.936
310.46, 3274.361
310.68, 3403.724
310.89, 3706.141
311.11, 3490.080
311.32, 3417.377
311.53, 3422.156
311.75, 3828.336
311.96, 3812.635
312.17, 3538.207
312.39, 3500.320
312.60, 3801.030
312.81, 3874.074
313.03, 3522.848
313.24, 3471.990
313.45, 3719.453
313.67, 3879.535
313.88, 3558.346
314.09, 3528.650
314.31, 3807.857
314.52, 3848.475
314.73, 3558.346
314.95, 3501.685
315.16, 4121.537
315.37, 4022.211
315.58, 3574.047
315.80, 3372.322
316.01, 3718.429
316.22, 3870.320
316.44, 3616.030
316.65, 3764.167
316.86, 3884.655
317.08, 3955.993
317.29, 3676.787
317.50, 3500.320
317.72, 3732.082
317.93, 4090.476
318.14, 3617.054
318.35, 3771.676
318.57, 3832.432
318.78, 4118.465
318.99, 3687.026
319.21, 3504.416
319.42, 4184.683
319.63, 3858.714
319.85, 3593.844
320.06, 3785.329
320.27, 3985.347
320.48, 3720.135
320.70, 3693.853
320.91, 3842.331
321.12, 4161.472
321.34, 4120.854
321.55, 3823.558
321.76, 3803.078
321.97, 4316.094
322.19, 4085.356
322.40, 3977.838
322.61, 3943.364
322.83, 4245.098
323.04, 4170.688
323.25, 3979.545
323.46, 4009.581
323.68, 4356.030
323.89, 4112.663
324.10, 3981.934
324.31, 4189.120
324.53, 4407.229
324.74, 4628.068
324.95, 4181.270
325.16, 4366.269
325.38, 4665.273
325.59, 4675.171
325.80, 4337.256
326.01, 4303.465
326.23, 4865.974
326.44, 4694.286
326.65, 4287.423
326.86, 4457.063
327.08, 4585.743
327.29, 4555.365
327.50, 4323.262
327.71, 4456.721
327.93, 4188.779
328.14, 4433.511
328.35, 4249.535
328.56, 4402.450
328.78, 4674.489
328.99, 4963.594
329.20, 4363.880
329.41, 4404.839
329.63, 4730.808
329.84, 4601.103
330.05, 4421.565
330.26, 4338.622
330.48, 4392.210
330.69, 4586.085
330.90, 4480.273
331.11, 4339.646
331.32, 4629.433
331.54, 4833.548
331.75, 4429.074
331.96, 4552.976
332.17, 5107.293
332.39, 4565.605
332.60, 4503.483
332.81, 4450.577
333.02, 4669.710
333.23, 4581.647
333.45, 4665.955
333.66, 4680.291
333.87, 4857.099
334.08, 4876.896
334.29, 4658.446
334.51, 4764.941
334.72, 5011.721
334.93, 4981.684
335.14, 4793.612
335.35, 4740.365
335.57, 4939.701
335.78, 4973.492
335.99, 4738.317
336.20, 4697.016
336.41, 4969.055
336.63, 5329.497
336.84, 4733.880
337.05, 5047.560
337.26, 5388.206
337.47, 5032.542
337.69, 5139.378
337.90, 4941.749
338.11, 5367.726
338.32, 5601.195
338.53, 4936.970
338.74, 5019.571
338.96, 5624.064
339.17, 5818.621
339.38, 5491.628
339.59, 5298.436
339.80, 5527.809
340.01, 5725.097
340.23, 5462.615
340.44, 5208.326
340.65, 5730.558
340.86, 5706.324
341.07, 5378.649
341.28, 5416.877
341.50, 5787.560
341.71, 5536.342
341.92, 5578.326
342.13, 5497.089
342.34, 5736.360
342.55, 5659.220
342.77, 5562.624
342.98, 5556.481
343.19, 5968.464
343.40, 6029.903
343.61, 5689.940
343.82, 5790.973
344.03, 5700.521
344.25, 6208.076
344.46, 5694.718
344.67, 5926.480
344.88, 6040.143
345.09, 6178.722
345.30, 5856.508
345.51, 5969.146
345.73, 6296.480
345.94, 6177.015
346.15, 6148.685
346.36, 6118.648
346.57, 6330.954
346.78, 6151.074
346.99, 6104.654
347.21, 6157.559
347.42, 6258.592
347.63, 6245.963
347.84, 6157.901
348.05, 6123.085
348.26, 6287.947
348.47, 6174.284
348.68, 6028.196
348.89, 6304.330
349.11, 6449.736
349.32, 6617.670
349.53, 6017.956
349.74, 6318.325
349.95, 6221.046
350.16, 6620.742
350.37, 6105.678
350.58, 6402.292
350.79, 6629.958
351.01, 6695.834
351.22, 6366.452
351.43, 6346.314
351.64, 6746.009
351.85, 6648.389
352.06, 6351.434
352.27, 6404.340
352.48, 6649.755
352.69, 6923.500
352.90, 6493.426
353.12, 6582.172
353.33, 6821.443
353.54, 6726.553
353.75, 6596.166
353.96, 6562.033
354.17, 6808.813
354.38, 7066.516
354.59, 6708.804
354.80, 6853.186
355.01, 6856.941
355.22, 7026.581
355.43, 6797.550
355.64, 6931.009
355.86, 7165.843
356.07, 7363.130
356.28, 6950.465
356.49, 6657.946
356.70, 7244.689
356.91, 7550.178
357.12, 7148.094
357.33, 7079.828
357.54, 7458.020
357.75, 7424.911
357.96, 7018.730
358.17, 7108.841
358.38, 7433.444
358.59, 7514.680
358.80, 7260.732
359.02, 7311.590
359.23, 7423.204
359.44, 7796.276
359.65, 7302.033
359.86, 7640.971
360.07, 7708.896
360.28, 7567.245
360.49, 7532.088
360.70, 7786.036
360.91, 7862.493
361.12, 7900.039
361.33, 7808.564
361.54, 7746.100
361.75, 8242.392
361.96, 8070.021
362.17, 8025.990
362.38, 7846.110
362.59, 8553.683
362.80, 8338.305
363.01, 7951.921
363.22, 8109.956
363.43, 7941.340
363.64, 8457.428
363.85, 7965.233
364.06, 8195.288
364.27, 8435.583
364.48, 8577.917
364.69, 8074.117
364.90, 8216.451
365.11, 8541.736
365.33, 8622.972
365.54, 8147.844
365.75, 8432.853
365.96, 8580.989
366.17, 8528.425
366.38, 8248.535
366.59, 8360.491
366.80, 8363.563
367.01, 9038.369
367.22, 8043.739
367.43, 8390.187
367.64, 8675.196
367.85, 8654.716
368.06, 8156.377
368.27, 8265.943
368.48, 9077.621
368.69, 8242.050
368.90, 8387.797
369.11, 8469.716
369.32, 8917.197
369.53, 8709.670
369.74, 8512.041
369.94, 8443.434
370.15, 8588.498
370.36, 8977.954
370.57, 8363.904
370.78, 8612.050
370.99, 8873.166
371.20, 9102.880
371.41, 8699.771
371.62, 8681.340
371.83, 8778.277
372.04, 8799.098
372.25, 8585.085
372.46, 8822.649
372.67, 8897.400
372.88, 9297.778
373.09, 8617.170
373.30, 8791.589
373.51, 8892.280
373.72, 9177.972
373.93, 8931.874
374.14, 8742.779
374.35, 9098.784
374.56, 9404.614
374.77, 9130.527
374.98, 8868.046
375.19, 9342.833
375.40, 9411.782
375.61, 9024.716
375.82, 9278.322
376.03, 9264.328
376.23, 9438.747
376.44, 9143.156
376.65, 9045.537
376.86, 9180.703
377.07, 9555.481
377.28, 9374.236
377.49, 9210.057
377.70, 9607.363
377.91, 9408.368
378.12, 9225.417
378.33, 9384.134
378.54, 9361.948
378.75, 9810.112
378.96, 9387.206
379.17, 9400.177
379.37, 9750.038
379.58, 9548.996
379.79, 9378.673
380.00, 9413.830
380.21, 9664.365
380.42, 9860.287
380.63, 9585.176
380.84, 9490.970
381.05, 9952.445
381.26, 9997.159
381.47, 9509.402
381.68, 9894.761
381.89, 10242.233
382.09, 9802.944
382.30, 9958.931
382.51, 9758.912
382.72, 10169.530
382.93, 9876.671
383.14, 9685.186
383.35, 10053.820
383.56, 10049.383
383.77, 10231.652
383.98, 9985.554
384.18, 10121.744
384.39, 10436.107
384.60, 10422.454
384.81, 9857.215
385.02, 9739.457
385.23, 10096.486
385.44, 10386.274
385.65, 10097.851
385.86, 10034.364
386.06, 10525.877
386.27, 10598.921
386.48, 10165.434
386.69, 10123.451
386.90, 10099.558
387.11, 10631.347
387.32, 10092.390
387.53, 10231.652
387.73, 10433.035
387.94, 10734.428
388.15, 10290.360
388.36, 10235.065
388.57, 10882.565
388.78, 10702.343
388.99, 10489.355
389.20, 10050.407
389.40, 11234.815
389.61, 10434.401
389.82, 10202.980
390.03, 10337.805
390.24, 10763.100
390.45, 10444.299
390.66, 10583.561
390.86, 10247.694
391.07, 10368.524
391.28, 10513.248
391.49, 10285.923
391.70, 10452.491
391.91, 10534.410
392.12, 11002.712
392.32, 10330.637
392.53, 10627.934
392.74, 10860.378
392.95, 11004.419
393.16, 10454.539
393.37, 10424.844
393.57, 10813.275
393.78, 10800.987
393.99, 11036.845
394.20, 10726.236
394.41, 11218.090
394.62, 11026.264
394.82, 10993.838
395.03, 10955.268
395.24, 11102.721
395.45, 11010.221
395.66, 10829.317
395.87, 10887.343
396.07, 11156.310
396.28, 11199.658
396.49, 11274.068
396.70, 10885.978
396.91, 11197.952
397.11, 11382.269
397.32, 10637.491
397.53, 11073.708
397.74, 11374.077
397.95, 11379.880
398.16, 10939.566
398.36, 11446.780
398.57, 11536.549
398.78, 11153.920
398.99, 11166.208
399.20, 11015.341
399.40, 10845.701
399.61, 11695.950
399.82, 11110.913
400.03, 11145.729
400.24, 11530.747
400.44, 11216.725
400.65, 11185.323
400.86, 11214.336
401.07, 11569.317
401.27, 11689.464
401.48, 11292.841
401.69, 11180.885
401.90, 12025.331
402.11, 11544.059
402.31, 11545.765
402.52, 11550.544
402.73, 11474.428
402.94, 11606.863
403.15, 11481.937
403.35, 11369.640
403.56, 12144.796
403.77, 11747.831
403.98, 11707.896
404.18, 11517.094
404.39, 11972.767
404.60, 11913.376
404.81, 11822.582
405.01, 11824.289
405.22, 12091.549
405.43, 12348.910
405.64, 12059.123
405.85, 11998.366
406.05, 12439.021
406.26, 12318.191
406.47, 12164.252
406.68, 12114.076
406.88, 12862.609
407.09, 12282.010
407.30, 11848.182
407.51, 11662.841
407.71, 12860.902
407.92, 11851.254
408.13, 11962.185
408.34, 12180.977
408.54, 12264.261
408.75, 11969.695
408.96, 12846.908
409.16, 12450.626
409.37, 12535.275
409.58, 12621.973
409.79, 12466.668
409.99, 12471.447
410.20, 12871.825
410.41, 12302.148
410.62, 12127.730
410.82, 12451.650
411.03, 13090.275
411.24, 12625.727
411.45, 12458.477
411.65, 12402.499
411.86, 12738.366
412.07, 12783.421
412.27, 12644.842
412.48, 12623.338
412.69, 12681.705
412.90, 13431.603
413.10, 12553.024
413.31, 12595.349
413.52, 12861.585
413.72, 12483.735
413.93, 12687.849
414.14, 12379.288
414.35, 12823.698
414.55, 13210.764
414.76, 12642.794
414.97, 12804.583
415.17, 12889.574
415.38, 12947.258
415.59, 12574.869
415.79, 12697.748
416.00, 13319.647
416.21, 13299.509
416.41, 12751.336
416.62, 12286.789
416.83, 13556.870
417.04, 13333.642
417.24, 12846.908
417.45, 12783.421
417.66, 13077.304
417.86, 13198.817
418.07, 12749.629
418.28, 13138.061
418.48, 13449.693
418.69, 13187.553
418.90, 13248.992
419.10, 12990.266
419.31, 13337.738
419.52, 13349.684
419.72, 13051.705
419.93, 13057.849
420.14, 13609.094
420.34, 13457.203
420.55, 12894.353
420.76, 13455.155
420.96, 13259.574
421.17, 13402.590
421.38, 13053.753
421.58, 13273.227
421.79, 13601.584
422.00, 13696.815
422.20, 12935.653
422.41, 13046.244
422.62, 13242.166
422.82, 13554.481
423.03, 13201.207
423.24, 13432.627
423.44, 13110.755
423.65, 13159.906
423.85, 13193.697
424.06, 13460.275
424.27, 13706.372
424.47, 13585.542
424.68, 13796.824
424.89, 13696.474
425.09, 13580.763
425.30, 13385.865
425.51, 13277.323
425.71, 13355.828
425.92, 13484.509
426.12, 14203.346
426.33, 13364.361
426.54, 12899.131
426.74, 13484.168
426.95, 13681.455
427.16, 12826.428
427.36, 13907.756
427.57, 13562.332
427.77, 14104.019
427.98, 13506.354
428.19, 13731.972
428.39, 13688.964
428.60, 13846.999
428.81, 13570.524
429.01, 13292.000
429.22, 13762.691
429.42, 13551.409
429.63, 13729.241
429.84, 13620.016
430.04, 14063.060
430.25, 14130.984
430.45, 13329.887
430.66, 14202.322
430.87, 13606.704
431.07, 13659.952
431.28, 13885.911
431.48, 13766.105
431.69, 14145.661
431.90, 13657.562
432.10, 14483.235
432.31, 13731.289
432.51, 14233.724
432.72, 14337.488
432.92, 14335.440
433.13, 14069.204
433.34, 14249.084
433.54, 14503.373
433.75, 14148.051
433.95, 14223.484
434.16, 14805.449
434.37, 14295.505
434.57, 14260.689
434.78, 14494.840
434.98, 14680.864
435.19, 14630.689
435.39, 14939.249
435.60, 14466.851
435.81, 14978.161
436.01, 14584.951
436.22, 14170.920
436.42, 14628.299
436.63, 15377.173
436.83, 15416.426
437.04, 14946.076
437.24, 14775.753
437.45, 15075.098
437.66, 14799.305
437.86, 14439.545
438.07, 15050.181
438.27, 15038.917
438.48, 14816.030
438.68, 14791.796
438.89, 15115.716
439.09, 15178.862
439.30, 15333.825
439.50, 14428.622
439.71, 15156.675
439.92, 15001.030
440.12, 15096.943
440.33, 14720.799
440.53, 15281.601
440.74, 15247.127
440.94, 15305.836
441.15, 14931.058
441.35, 14992.838
441.56, 15181.592
441.76, 15352.598
441.97, 15019.120
442.17, 15430.079
442.38, 14914.674
442.58, 15209.240
442.79, 14705.781
443.00, 14886.002
443.20, 15392.192
443.41, 14883.954
443.61, 14566.178
443.82, 14913.650
444.02, 14905.458
444.23, 14903.410
444.43, 14761.759
444.64, 14798.964
444.84, 15052.570
445.05, 14663.115
445.25, 14784.286
445.46, 14995.227
445.66, 14628.299
445.87, 14614.646
446.07, 14565.495
446.28, 14825.587
446.48, 15272.727
446.69, 14726.943
446.89, 14849.480
447.10, 14944.369
447.30, 15253.954
447.51, 15131.758
447.71, 15650.236
447.92, 15307.542
448.12, 15709.968
448.33, 15418.474
448.53, 15231.426
448.73, 15500.051
448.94, 16481.711
449.14, 15906.232
449.35, 15833.870
449.55, 15738.640
449.76, 16148.234
449.96, 16428.464
450.17, 15886.776
450.37, 16322.311
450.58, 16399.451
450.78, 16229.128
450.99, 16056.758
451.19, 16204.211
451.40, 16290.226
451.60, 16437.680
451.81, 16480.346
452.01, 16199.433
452.21, 16195.678
452.42, 16202.505
452.62, 15595.623
452.83, 15915.789
453.03, 16120.586
453.24, 15925.688
453.44, 16038.326
453.65, 15723.621
453.85, 16275.890
454.06, 15620.199
454.26, 15732.837
454.46, 15848.889
454.67, 15866.297
454.87, 15998.391
455.08, 16049.931
455.28, 15424.959
455.49, 16424.709
455.69, 16051.638
455.89, 15836.260
456.10, 15476.500
456.30, 16460.208
456.51, 16079.285
456.71, 15743.418
456.92, 15930.466
457.12, 16544.516
457.32, 15975.863
457.53, 16063.926
457.73, 16196.361
457.94, 16696.748
458.14, 16129.119
458.35, 16017.164
458.55, 15661.158
458.75, 16434.267
458.96, 16706.305
459.16, 16175.199
459.37, 16521.988
459.57, 16231.176
459.77, 16540.761
459.98, 16226.056
460.18, 16697.089
460.39, 16972.200
460.59, 16688.556
460.79, 16868.436
461.00, 16384.774
461.20, 17143.205
461.41, 17310.115
461.61, 17137.402
461.81, 17007.698
462.02, 17264.377
462.22, 18017.005
462.43, 17675.677
462.63, 17150.714
462.83, 17956.931
463.04, 17851.802
463.24, 18036.802
463.45, 17949.422
463.65, 18040.557
463.85, 18483.259
464.06, 17934.062
464.26, 18390.077
464.46, 18812.300
464.67, 19080.925
464.87, 18714.680
465.08, 18502.715
465.28, 19266.266
465.48, 19319.172
465.69, 19301.423
465.89, 19197.659
466.09, 20440.776
466.30, 20241.099
466.50, 19722.963
466.71, 20320.970
466.91, 20948.672
467.11, 21318.672
467.32, 20976.320
467.52, 20987.584
467.72, 21656.928
467.93, 21077.353
468.13, 21933.404
468.33, 21330.277
468.54, 22453.929
468.74, 22073.690
468.94, 22129.326
469.15, 21809.161
469.35, 21774.004
469.55, 21994.160
469.76, 21640.203
469.96, 21632.011
470.17, 21373.285
470.37, 22166.531
470.57, 21629.963
470.78, 21547.703
470.98, 22272.343
471.18, 22147.075
471.39, 21786.974
471.59, 22094.852
471.79, 22174.723
471.99, 22027.611
472.20, 22216.706
472.40, 22066.863
472.60, 21954.225
472.81, 22323.883
473.01, 22427.647
473.21, 22014.299
473.42, 22599.335
473.62, 22529.022
473.82, 22400.000
474.03, 22046.725
474.23, 22220.120
474.43, 22127.620
474.64, 21413.220
474.84, 21745.332
475.04, 21831.688
475.25, 21692.085
475.45, 21668.192
475.65, 21121.726
475.85, 21345.978
476.06, 21514.253
476.26, 21056.873
476.46, 21255.868
476.67, 21433.358
476.87, 21363.045
477.07, 21248.700
477.28, 21068.820
477.48, 21563.404
477.68, 21622.454
477.88, 21185.554
478.09, 21591.052
478.29, 21597.878
478.49, 22315.691
478.70, 21576.375
478.90, 22045.360
479.10, 22266.882
479.30, 22728.699
479.51, 22116.697
479.71, 22000.646
479.91, 23096.992
480.11, 23091.872
480.32, 23056.715
480.52, 23333.191
480.72, 23270.728
480.93, 23685.783
481.13, 23235.229
481.33, 23900.819
481.53, 24300.173
481.74, 24485.856
481.94, 24324.066
482.14, 23913.107
482.34, 24636.723
482.55, 24595.422
482.75, 24564.702
482.95, 24150.671
483.15, 24801.584
483.36, 24205.625
483.56, 25044.951
483.76, 24205.967
483.96, 24577.332
484.17, 24589.961
484.37, 24083.089
484.57, 24199.140
484.77, 24416.566
484.98, 24362.295
485.18, 23869.076
485.38, 23859.519
485.58, 24316.898
485.79, 23855.423
485.99, 23517.166
486.19, 23592.259
486.39, 24296.077
486.59, 23527.748
486.80, 23530.478
487.00, 23172.766
487.20, 23854.740
487.40, 23703.190
487.61, 23730.497
487.81, 23329.436
488.01, 23711.041
488.21, 23917.886
488.41, 23628.781
488.62, 23669.058
488.82, 23477.231
489.02, 24040.764
489.22, 23781.696
489.43, 23921.982
489.63, 24336.695
489.83, 24142.821
490.03, 24031.548
490.23, 24104.934
490.44, 24782.811
490.64, 24576.990
490.84, 24868.485
491.04, 25053.143
491.24, 25108.438
491.45, 25530.320
491.65, 25271.252
491.85, 25126.870
492.05, 26066.888
492.25, 25610.191
492.45, 25536.122
492.66, 25142.912
492.86, 25535.098
493.06, 25768.225
493.26, 25401.980
493.46, 25202.645
493.67, 25996.915
493.87, 25152.128
494.07, 25105.708
494.27, 24708.402
494.47, 24913.881
494.67, 24951.769
494.88, 24555.145
495.08, 24437.728
495.28, 24577.332
495.48, 24359.564
495.68, 24016.188
495.89, 23847.231
496.09, 24057.489
496.29, 23892.969
496.49, 23980.349
496.69, 23732.203
496.89, 23584.749
497.09, 24023.356
497.30, 23388.144
497.50, 23527.406
497.70, 23705.921
497.90, 23940.072
498.10, 23313.394
498.30, 23728.790
498.51, 23201.438
498.71, 23398.384
498.91, 23035.211
499.11, 23277.895
499.31, 23372.785
499.51, 23584.408
499.71, 23137.610
499.92, 22838.948
500.12, 23144.095
500.32, 23033.505
500.52, 23134.879
500.72, 22693.883
500.92, 23196.318
501.12, 23189.833
501.32, 22430.036
501.53, 22828.708
501.73, 23121.567
501.93, 23213.043
502.13, 22564.178
502.33, 22510.590
502.53, 22988.791
502.73, 23086.410
502.93, 22632.444
503.14, 22804.473
503.34, 22863.864
503.54, 22764.197
503.74, 22785.700
503.94, 22499.326
504.14, 23077.877
504.34, 22872.739
504.54, 22779.215
504.74, 22506.835
504.95, 22738.256
505.15, 23327.729
505.35, 22332.417
505.55, 22677.499
505.75, 22703.440
505.95, 22749.178
506.15, 22542.333
506.35, 22477.822
506.55, 22564.861
506.75, 22747.813
506.95, 22334.806
507.16, 22359.723
507.36, 22571.346
507.56, 22626.641
507.76, 22392.149
507.96, 22267.906
508.16, 22283.948
508.36, 22449.833
508.56, 22176.088
508.76, 22466.900
508.96, 22524.243
509.16, 22778.532
509.36, 22166.190
509.57, 22195.885
509.77, 22238.893
509.97, 22343.339
510.17, 22150.830
510.37, 22432.426
510.57, 22335.147
510.77, 22188.035
510.97, 22321.494
511.17, 22262.444
511.37, 22907.896
511.57, 22749.520
511.77, 22417.066
511.97, 22365.525
512.17, 22858.403
512.37, 22861.816
512.57, 22383.274
512.78, 22376.448
512.98, 22638.588
513.18, 22642.342
513.38, 22417.749
513.58, 22739.621
513.78, 23067.637
513.98, 22892.195
514.18, 22787.748
514.38, 22446.079
514.58, 22506.153
514.78, 22796.281
514.98, 22693.542
515.18, 22620.497
515.38, 23007.564
515.58, 22818.126
515.78, 22725.285
515.98, 22694.224
516.18, 23158.089
516.38, 23236.595
516.58, 22909.944
516.78, 22548.477
516.98, 22821.881
517.18, 23221.918
517.38, 22918.818
517.58, 23071.733
517.78, 23082.656
517.98, 23622.637
518.18, 23024.289
518.38, 23141.364
518.58, 23636.290
518.78, 23160.820
518.98, 23150.239
519.18, 23166.964
519.38, 23393.264
519.58, 23473.135
519.78, 23245.128
519.98, 23352.305
520.18, 23495.663
520.38, 23567.683
520.58, 23427.739
520.78, 23147.508
520.98, 23649.602
521.18, 23526.382
521.38, 23555.737
521.58, 23274.482
521.78, 23672.129
521.98, 23487.130
522.18, 23218.504
522.38, 23565.294
522.58, 23116.789
522.78, 23636.973
522.98, 23500.783
523.18, 23168.329
523.38, 23575.875
523.58, 23452.655
523.78, 23062.859
523.98, 23344.113
524.18, 23637.997
524.38, 23563.587
524.58, 23409.307
524.78, 23273.800
524.98, 23705.238
525.18, 23571.096
525.38, 23550.958
525.58, 23473.135
525.78, 23906.281
525.98, 23700.460
526.18, 23487.471
526.38, 23326.364
526.58, 23749.611
526.78, 23470.063
526.98, 23665.303
527.17, 23228.403
527.37, 23608.301
527.57, 23569.390
527.77, 23278.578
527.97, 23352.646
528.17, 23519.556
528.37, 23519.897
528.57, 23424.325
528.77, 23425.349
528.97, 23833.919
529.17, 23622.296
529.37, 23454.362
529.57, 23076.853
529.77, 23376.198
529.97, 23733.569
530.17, 23384.049
530.36, 23308.615
530.56, 23472.794
530.76, 23303.495
530.96, 23204.851
531.16, 23195.294
531.36, 23442.074
531.56, 23652.332
531.76, 22810.959
531.96, 22832.804
532.16, 23266.632
532.36, 22925.304
532.56, 23063.541
532.76, 22884.344
532.95, 22964.898
533.15, 23162.527
533.35, 22912.674
533.55, 22662.140
533.75, 23490.543
533.95, 22792.868
534.15, 22693.883
534.35, 22538.579
534.55, 23018.827
534.75, 22773.071
534.94, 22531.752
535.14, 22564.520
535.34, 22630.396
535.54, 22494.206
535.74, 22673.745
535.94, 22288.727
536.14, 22723.237
536.34, 22982.305
536.54, 22596.946
536.73, 22262.444
536.93, 22684.667
537.13, 22878.200
537.33, 22602.407
537.53, 22185.304
537.73, 22376.107
537.93, 22228.311
538.13, 22729.722
538.32, 22163.459
538.52, 22339.584
538.72, 22213.293
538.92, 22063.109
539.12, 22031.365
539.32, 22578.514
539.52, 22423.210
539.72, 22327.297
539.91, 22005.083
540.11, 22261.079
540.31, 22291.116
540.51, 22029.317
540.71, 22196.568
540.91, 22383.957
541.11, 22133.422
541.30, 21924.188
541.50, 21805.747
541.70, 21849.096
541.90, 21929.649
542.10, 21610.849
542.30, 21711.199
542.49, 22039.557
542.69, 21936.476
542.89, 21477.390
543.09, 21822.472
543.29, 22217.730
543.49, 22201.688
543.68, 21796.190
543.88, 21701.642
544.08, 21923.164
544.28, 21844.317
544.48, 21935.793
544.68, 21468.174
544.87, 21991.771
545.07, 21672.288
545.27, 21441.550
545.47, 21517.325
545.67, 21661.024
545.87, 21579.105
546.06, 21405.028
546.26, 21258.598
546.46, 21748.404
546.66, 21587.297
546.86, 21616.310
547.05, 21395.471
547.25, 21741.919
547.45, 21927.260
547.65, 21279.419
547.85, 20943.894
548.04, 21706.421
548.24, 21470.563
548.44, 21179.069
548.64, 21158.248
548.84, 21665.461
549.03, 20988.608
549.23, 21081.449
549.43, 21122.408
549.63, 21369.189
549.83, 21287.611
550.02, 21182.141
550.22, 21179.410
550.42, 21258.940
550.62, 21334.373
550.82, 20900.204
551.01, 21021.375
551.21, 21378.063
551.41, 21604.022
551.61, 20701.209
551.80, 21090.665
552.00, 20992.362
552.20, 21222.759
552.40, 20873.580
552.60, 21009.429
552.79, 21213.543
552.99, 21222.418
553.19, 20887.233
553.39, 20719.300
553.58, 21154.835
553.78, 20751.726
553.98, 20868.460
554.18, 20682.436
554.37, 20683.119
554.57, 20693.700
554.77, 20821.016
554.97, 20751.385
555.16, 20922.390
555.36, 21317.989
555.56, 20597.446
555.76, 20457.501
555.95, 21171.901
556.15, 20848.322
556.35, 20647.621
556.55, 20391.284
556.74, 20387.188
556.94, 20545.222
557.14, 20310.047
557.34, 20406.985
557.53, 20737.732
557.73, 20728.857
557.93, 20267.723
558.13, 20256.118
558.32, 20579.697
558.52, 20525.767
558.72, 20159.863
558.92, 20296.736
559.11, 20480.029
559.31, 20367.391
559.51, 20212.086
559.70, 20208.673
559.90, 20241.440
560.10, 20074.872
560.30, 19994.319
560.49, 20198.092
560.69, 20062.243
560.89, 20383.092
561.08, 19875.878
561.28, 19840.721
561.48, 20237.345
561.68, 20210.721
561.87, 19912.400
562.07, 19820.583
562.27, 20027.769
562.46, 20073.507
562.66, 19924.688
562.86, 19541.718
563.05, 19989.540
563.25, 19730.131
563.45, 19520.214
563.65, 19699.753
563.84, 20072.142
564.04, 19758.120
564.24, 19666.985
564.43, 19709.993
564.63, 19967.013
564.83, 19842.428
565.02, 19517.142
565.22, 19471.404
565.42, 19588.821
565.61, 19694.633
565.81, 19453.996
566.01, 19474.135
566.20, 19708.627
566.40, 19411.330
566.60, 19416.792
566.79, 19280.260
566.99, 19855.740
567.19, 19636.266
567.38, 19500.076
567.58, 19333.849
567.78, 19595.306
567.97, 19375.491
568.17, 19120.860
568.37, 19239.984
568.56, 19874.513
568.76, 19480.961
568.96, 19347.161
569.15, 19240.666
569.35, 20700.185
569.55, 19764.946
569.74, 19189.809
569.94, 19203.462
570.14, 19578.581
570.33, 19401.091
570.53, 18853.600
570.73, 19075.805
570.92, 19102.770
571.12, 19181.617
571.31, 18773.730
571.51, 18913.674
571.71, 19264.901
571.90, 19400.067
572.10, 18736.525
572.30, 18844.726
572.49, 19368.664
572.69, 19256.709
572.88, 18968.969
573.08, 18667.576
573.28, 19494.615
573.47, 19080.925
573.67, 18544.698
573.87, 18697.272
574.06, 18951.561
574.26, 19160.796
574.45, 18638.905
574.65, 18431.036
574.85, 19057.715
575.04, 18805.814
575.24, 18747.447
575.44, 18564.837
575.63, 19020.510
575.83, 18603.065
576.02, 18545.381
576.22, 18648.803
576.42, 18928.010
576.61, 18897.973
576.81, 18504.422
577.00, 18602.383
577.20, 18756.663
577.40, 19046.109
577.59, 18415.335
577.79, 18574.394
577.98, 18831.073
578.18, 18578.831
578.37, 18615.353
578.57, 18280.510
578.77, 18452.881
578.96, 18249.450
579.16, 18199.616
579.35, 18060.012
579.55, 18542.650
579.75, 18233.748
579.94, 18417.724
580.14, 18073.666
580.33, 18856.331
580.53, 18394.855
580.72, 17998.232
580.92, 18279.486
581.12, 18245.354
581.31, 18631.054
581.51, 18290.068
581.70, 18182.891
581.90, 18976.478
582.09, 18251.156
582.29, 17923.822
582.48, 18110.188
582.68, 18538.896
582.88, 18511.590
583.07, 17938.841
583.27, 17790.022
583.46, 18274.708
583.66, 18396.221
583.85, 18056.940
584.05, 17977.411
584.24, 18659.726
584.44, 18340.584
584.63, 17834.395
584.83, 17829.616
585.03, 18265.833
585.22, 17958.979
585.42, 17609.459
585.61, 17773.297
585.81, 18110.870
586.00, 17890.372
586.20, 17664.072
586.39, 17515.935
586.59, 17790.705
586.78, 17714.247
586.98, 17688.647
587.17, 17704.349
587.37, 17933.721
587.56, 18222.485
587.76, 17564.063
587.95, 17654.856
588.15, 17714.247
588.34, 17976.046
588.54, 17448.011
588.74, 17584.884
588.93, 17671.240
589.13, 17881.839
589.32, 17456.203
589.52, 17206.351
589.71, 17897.199
589.91, 17722.439
590.10, 17371.212
590.30, 17264.377
590.49, 17613.897
590.69, 17610.483
590.88, 17284.856
591.08, 17070.502
591.27, 17458.251
591.47, 17209.764
591.66, 17156.517
591.85, 17062.993
592.05, 17502.965
592.24, 17411.489
592.44, 16879.358
592.63, 16768.768
592.83, 17440.161
593.02, 17208.399
593.22, 16881.406
593.41, 16767.744
593.61, 17121.019
593.80, 17737.457
594.00, 16921.000
594.19, 16803.584
594.39, 17044.903
594.58, 16983.122
594.78, 16646.231
594.97, 16725.761
595.17, 16960.936
595.36, 16910.761
595.56, 16564.313
595.75, 16534.958
595.94, 17057.190
596.14, 17000.189
596.33, 16487.855
596.53, 16416.518
596.72, 16860.927
596.92, 16672.514
597.11, 16417.541
597.31, 16812.117
597.50, 16961.619
597.69, 17059.238
597.89, 16593.667
598.08, 16373.510
598.28, 16908.030
598.47, 16672.514
598.67, 16450.650
598.86, 16321.970
599.06, 16847.956
599.25, 16368.049
599.44, 16219.571
599.64, 16276.573
599.83, 16584.451
600.03, 16383.409
600.22, 16114.101
600.42, 16224.008
600.61, 16396.379
600.80, 16219.571
601.00, 16256.093
601.19, 16006.582
601.39, 16490.927
601.58, 16041.739
601.78, 16009.313
601.97, 15852.985
602.16, 16116.149
602.36, 15972.108
602.55, 15938.317
602.75, 15527.016
602.94, 15999.073
603.13, 16226.398
603.33, 15407.552
603.52, 15603.474
603.72, 16027.403
603.91, 15594.258
604.10, 15524.968
604.30, 15368.640
604.49, 15638.972
604.69, 15462.164
604.88, 15121.519
605.07, 15415.402
605.27, 15461.481
605.46, 15341.675
605.66, 15270.338
605.85, 15079.535
606.04, 15559.443
606.24, 15597.671
606.43, 14866.888
606.62, 14945.735
606.82, 15314.369
607.01, 15433.834
607.21, 14875.080
607.40, 15007.856
607.59, 15254.978
607.79, 14892.146
607.98, 14997.616
608.17, 14729.674
608.37, 15198.317
608.56, 15623.954
608.76, 14587.681
608.95, 14646.731
609.14, 15281.943
609.34, 15056.666
609.53, 14739.914
609.72, 14592.460
609.92, 15028.336
610.11, 14982.257
610.30, 14650.144
610.50, 14543.991
610.69, 14571.639
610.88, 15038.235
611.08, 14620.790
611.27, 14518.392
611.46, 15065.882
611.66, 14725.919
611.85, 14541.602
612.04, 14662.774
612.24, 15048.816
612.43, 14795.209
612.62, 14538.530
612.82, 14508.152
613.01, 14913.650
613.20, 14988.742
613.40, 14804.766
613.59, 14519.074
613.78, 15190.467
613.98, 14685.301
614.17, 14720.458
614.36, 14832.755
614.56, 16043.787
614.75, 15056.666
614.94, 14872.690
615.14, 14869.960
615.33, 15507.219
615.52, 15387.413
615.72, 14932.764
615.91, 14930.034
616.10, 15270.679
616.30, 15300.716
616.49, 15034.139
616.68, 15020.485
616.88, 15656.380
617.07, 15676.859
617.26, 14984.305
617.45, 15148.825
617.65, 15883.363
617.84, 15202.755
618.03, 15019.803
618.23, 15208.557
618.42, 15491.860
618.61, 15357.376
618.80, 15221.528
619.00, 15177.838
619.19, 15762.874
619.38, 15707.238
619.58, 15295.255
619.77, 15464.553
619.96, 15910.328
620.15, 15557.395
620.35, 15361.472
620.54, 15376.491
620.73, 15613.372
620.93, 15762.191
621.12, 15391.850
621.31, 15425.983
621.50, 15450.559
621.70, 16111.029
621.89, 15236.887
622.08, 15059.738
622.27, 15765.605
622.47, 15676.177
622.66, 15152.238
622.85, 15316.417
623.04, 15507.902
623.24, 15331.435
623.43, 15204.461
623.62, 15055.301
623.81, 15489.812
624.01, 15553.981
624.20, 15073.733
624.39, 15160.771
624.58, 15276.823
624.78, 15340.993
624.97, 14921.159
625.16, 14811.934
625.35, 15218.797
625.55, 15552.275
625.74, 15054.960
625.93, 15047.109
626.12, 15099.332
626.32, 15088.410
626.51, 14846.408
626.70, 14783.604
626.89, 15087.044
627.09, 15089.092
627.28, 14746.740
627.47, 14923.890
627.66, 15524.286
627.85, 15225.282
628.05, 14724.895
628.24, 14819.785
628.43, 15267.607
628.62, 15248.151
628.82, 14596.897
629.01, 14682.229
629.20, 14978.502
629.39, 14949.831
629.58, 14406.095
629.78, 14530.680
629.97, 14915.015
630.16, 14749.812
630.35, 14554.573
630.54, 14498.595
630.74, 14572.663
630.93, 14559.010
631.12, 14323.152
631.31, 14145.661
631.50, 14720.799
631.70, 14806.131
631.89, 14173.309
632.08, 14320.421
632.27, 14251.473
632.46, 14726.943
632.65, 14273.660
632.85, 14021.077
633.04, 14422.137
633.23, 14648.438
633.42, 13983.531
633.61, 13996.501
633.81, 14394.148
634.00, 14277.755
634.19, 14011.861
634.38, 13990.699
634.57, 13953.835
634.76, 13902.977
634.96, 13664.730
635.15, 13664.389
635.34, 13987.968
635.53, 13983.872
635.72, 13666.095
635.91, 13401.908
636.11, 13945.643
636.30, 13827.885
636.49, 13541.852
636.68, 13352.415
636.87, 13494.407
637.06, 14132.350
637.26, 13364.361
637.45, 13275.957
637.64, 13553.457
637.83, 13571.206
638.02, 13110.413
638.21, 13229.537
638.40, 13841.538
638.60, 13805.016
638.79, 13102.563
638.98, 12947.941
639.17, 13489.629
639.36, 13116.899
639.55, 12906.982
639.74, 12845.543
639.93, 13146.935
640.13, 13152.738
640.32, 12731.539
640.51, 12708.329
640.70, 13205.985
640.89, 13057.507
641.08, 12691.604
641.27, 12544.150
641.46, 13004.602
641.66, 13018.937
641.85, 12542.102
642.04, 12362.222
642.23, 12904.592
642.42, 12669.417
642.61, 12427.757
642.80, 12289.860
642.99, 12684.777
643.18, 13022.692
643.38, 12447.554
643.57, 12464.620
643.76, 12645.524
643.95, 12912.443
644.14, 12543.126
644.33, 12435.608
644.52, 13077.987
644.71, 12699.113
644.90, 12383.384
645.09, 12358.126
645.29, 12703.209
645.48, 12610.026
645.67, 12464.279
645.86, 12440.045
646.05, 12707.305
646.24, 12928.827
646.43, 12278.597
646.62, 12363.246
646.81, 12529.473
647.00, 12602.176
647.19, 12169.713
647.38, 12298.394
647.57, 12624.362
647.77, 12648.596
647.96, 12263.920
648.15, 12152.305
648.34, 12772.157
648.53, 12831.890
648.72, 12262.554
648.91, 12379.288
649.10, 12698.772
649.29, 12231.152
649.48, 12088.818
649.67, 12083.698
649.86, 12817.554
650.05, 12170.054
650.24, 11985.737
650.43, 12275.183
650.62, 12294.980
650.81, 12549.270
651.01, 11852.278
651.20, 11887.776
651.39, 12240.709
651.58, 12441.069
651.77, 11713.357
651.96, 11756.365
652.15, 12083.698
652.34, 11915.082
652.53, 11793.911
652.72, 11617.103
652.91, 12176.881
653.10, 11956.042
653.29, 11439.612
653.48, 11377.149
653.67, 11832.139
653.86, 11731.789
654.05, 11303.764
654.24, 11216.384
654.43, 11657.379
654.62, 11448.828
654.81, 11260.756
655.00, 11257.684
655.19, 11452.583
655.38, 11567.951
655.57, 11107.159
655.76, 11120.812
655.95, 11562.149
656.14, 11327.998
656.33, 11214.677
656.52, 11158.699
656.71, 11235.498
656.90, 11254.271
657.09, 11012.952
657.28, 10933.422
657.47, 11327.656
657.66, 11500.710
657.85, 10811.227
658.04, 11077.804
658.23, 11132.758
658.42, 11507.878
658.61, 10930.009
658.80, 10768.220
658.99, 11306.153
659.18, 11707.896
659.37, 10851.504
659.56, 10907.482
659.75, 11290.110
659.94, 11155.286
660.13, 10741.937
660.32, 10970.627
660.51, 11224.234
660.70, 11180.544
660.89, 10896.218
661.08, 10732.380
661.27, 11260.074
661.46, 11034.456
661.65, 10824.539
661.84, 10918.404
662.03, 11060.397
662.22, 11175.765
662.41, 10703.367
662.60, 10508.128
662.78, 10901.338
662.97, 11101.015
663.16, 10642.952
663.35, 10629.640
663.54, 10969.262
663.73, 11087.020
663.92, 10514.954
664.11, 10636.808
664.30, 10820.443
664.49, 11041.965
664.68, 10499.594
664.87, 10550.794
665.06, 10915.332
665.25, 10818.736
665.44, 10525.194
665.63, 10430.646
665.82, 10904.410
666.01, 11185.323
666.19, 10516.320
666.38, 10618.377
666.57, 11160.064
666.76, 10725.212
666.95, 10594.825
667.14, 10335.757
667.33, 10746.375
667.52, 10998.957
667.71, 10447.030
667.90, 10556.596
668.09, 10869.935
668.28, 10574.004
668.46, 10301.965
668.65, 10391.052
668.84, 11051.522
669.03, 10434.742
669.22, 10330.637
669.41, 10458.294
669.60, 11146.753
669.79, 10493.792
669.98, 10383.884
670.17, 10225.167
670.35, 10679.474
670.54, 10524.853
670.73, 10274.318
670.92, 10265.443
671.11, 10552.842
671.30, 10110.822
671.49, 10129.253
671.68, 10004.327
671.87, 10598.580
672.05, 10588.681
672.24, 10017.639
672.43, 10123.110
672.62, 10387.639
672.81, 10520.757
673.00, 10080.444
673.19, 9869.844
673.38, 10215.951
673.57, 10275.001
673.75, 10170.895
673.94, 9936.403
674.13, 10349.410
674.32, 10151.781
674.51, 9940.840
674.70, 9871.209
674.89, 9921.385
675.07, 10293.091
675.26, 10150.416
675.45, 9988.285
675.64, 10275.001
675.83, 10299.235
676.02, 9919.678
676.21, 10017.639
676.39, 10114.918
676.58, 9861.994
676.77, 9610.093
676.96, 9706.348
677.15, 10048.017
677.34, 10344.290
677.52, 9798.165
677.71, 9649.346
677.90, 10073.617
678.09, 10092.049
678.28, 9707.713
678.47, 9819.669
678.65, 10043.921
678.84, 10294.456
679.03, 9619.651
679.22, 9596.099
679.41, 9861.994
679.60, 9957.224
679.78, 9690.988
679.97, 9645.591
680.16, 10225.167
680.35, 10157.242
680.54, 9891.689
680.73, 9562.990
680.91, 10034.023
681.10, 10174.309
681.29, 9821.034
681.48, 9654.125
681.67, 10210.831
681.85, 9971.560
682.04, 9771.200
682.23, 9763.008
682.42, 10010.471
682.61, 9853.119
682.79, 9874.281
682.98, 9998.183
683.17, 10121.744
683.36, 10059.964
683.55, 9866.089
683.73, 9977.021
683.92, 10117.648
684.11, 10202.980
684.30, 10042.215
684.49, 9946.302
684.67, 10253.156
684.86, 10092.049
685.05, 9731.606
685.24, 9904.660
685.42, 10507.786
685.61, 10206.394
685.80, 9907.049
685.99, 9952.445
686.18, 10116.624
686.36, 10053.479
686.55, 10076.348
686.74, 9905.001
686.93, 10123.110
687.11, 10249.060
687.30, 9625.453
687.49, 9656.855
687.68, 10090.683
687.86, 10012.178
688.05, 9702.252
688.24, 9758.230
688.43, 10314.936
688.61, 10004.669
688.80, 9574.254
688.99, 9464.688
689.18, 10067.814
689.36, 9974.632
689.55, 9518.959
689.74, 9241.459
689.93, 9894.420
690.11, 9751.745
690.30, 9433.285
690.49, 9387.889
690.68, 9990.333
690.86, 9517.593
691.05, 9144.522
691.24, 9149.642
691.43, 9467.760
691.61, 9724.438
691.80, 9002.188
691.99, 8963.277
692.17, 9455.130
692.36, 9271.837
692.55, 9103.221
692.74, 8670.076
692.92, 9129.162
693.11, 9074.891
693.30, 8953.037
693.49, 8751.312
693.67, 8963.959
693.86, 9021.985
694.05, 8733.904
694.23, 8679.292
694.42, 9148.618
694.61, 8747.899
694.79, 8509.651
694.98, 8448.895
695.17, 8960.546
695.36, 8441.386
695.54, 8558.120
695.73, 8368.000
695.92, 8850.297
696.10, 8910.712
696.29, 8290.178
696.48, 8548.904
696.66, 9174.559
696.85, 8484.393
697.04, 8266.626
697.22, 8291.884
697.41, 8919.587
697.60, 8459.476
697.79, 8203.139
697.97, 8179.587
698.16, 8775.887
698.35, 8490.878
698.53, 8161.838
698.72, 8057.050
698.91, 8833.231
699.09, 8442.751
699.28, 8227.032
699.47, 8157.401
699.65, 8268.332
699.84, 8613.415
700.03, 8086.405
700.21, 8005.851
700.40, 8112.346
700.59, 8256.727
700.77, 7943.388
700.96, 7892.872
701.15, 8427.733
701.33, 8296.663
701.52, 7746.783
701.70, 7891.165
701.89, 8402.474
702.08, 7971.377
702.26, 7691.829
702.45, 7651.894
702.64, 7821.193
702.82, 8080.602
703.01, 7849.864
703.20, 7745.759
703.38, 8409.984
703.57, 7831.774
703.76, 7761.460
703.94, 7756.682
704.13, 7934.855
704.31, 7706.848
704.50, 7873.757
704.69, 7807.881
704.87, 7926.322
705.06, 7932.807
705.25, 7759.071
705.43, 7587.724
705.62, 8027.014
705.80, 8091.866
705.99, 7760.436
706.18, 7594.892
706.36, 7891.506
706.55, 7846.792
706.73, 7649.505
706.92, 7586.018
707.11, 8047.152
707.29, 8042.032
707.48, 7752.244
707.66, 7623.222
707.85, 7781.940
708.04, 7894.578
708.22, 7620.492
708.41, 7632.780
708.59, 8088.794
708.78, 7940.999
708.97, 7404.431
709.15, 7659.744
709.34, 8077.871
709.52, 7888.093
709.71, 7604.791
709.90, 7521.848
710.08, 8184.707
710.27, 7660.768
710.45, 7672.374
710.64, 7639.265
710.82, 8131.119
711.01, 7937.927
711.20, 7772.724
711.38, 7596.257
711.57, 8014.043
711.75, 7670.326
711.94, 7824.947
712.12, 7821.193
712.31, 7936.903
712.50, 8147.844
712.68, 7664.182
712.87, 7852.595
713.05, 8053.978
713.24, 7780.575
713.42, 7606.839
713.61, 7619.809
713.79, 8096.303
713.98, 7823.923
714.17, 7650.870
714.35, 7613.665
714.54, 7892.872
714.72, 7794.569
714.91, 7570.999
715.09, 7660.427
715.28, 7683.296
715.46, 8141.700
715.65, 7370.981
715.83, 7450.852
716.02, 7909.597
716.21, 7807.881
716.39, 7396.580
716.58, 7205.437
716.76, 7617.761
716.95, 7724.255
717.13, 7156.627
717.32, 7038.186
717.50, 7857.032
717.69, 7519.117
717.87, 7022.826
718.06, 6977.430
718.24, 7248.785
718.43, 7408.527
718.61, 7028.629
718.80, 6993.131
718.98, 7336.165
719.17, 7227.623
719.35, 6939.542
719.54, 6922.817
719.72, 7059.007
719.91, 7255.271
720.09, 6752.494
720.28, 6885.612
720.46, 7090.068
720.65, 7418.084
720.83, 6678.767
721.02, 6816.664
721.20, 7223.868
721.39, 6963.776
721.57, 6659.994
721.76, 6900.289
721.94, 7011.221
722.13, 6958.656
722.31, 6797.891
722.50, 6749.764
722.68, 6918.721
722.87, 7200.658
723.05, 6648.048
723.24, 7269.606
723.42, 6786.968
723.61, 7258.343
723.79, 6527.218
723.98, 6527.218
724.16, 7267.217
724.34, 6764.099
724.53, 6716.655
724.71, 6734.745
724.90, 6817.005
725.08, 7000.640
725.27, 6571.932
725.45, 6594.801
725.64, 6781.849
725.82, 7259.025
726.01, 6428.915
726.19, 6543.943
726.38, 6917.697
726.56, 6777.411
726.74, 6742.596
726.93, 6616.646
727.11, 7548.813
727.30, 6949.782
727.48, 6719.727
727.67, 6749.764
727.85, 7068.223
728.04, 7236.156
728.22, 6731.332
728.40, 6786.968
728.59, 7067.881
728.77, 7106.793
728.96, 6675.013
729.14, 6751.129
729.33, 7638.582
729.51, 7195.538
729.69, 6969.579
729.88, 6793.112
730.06, 7171.987
730.25, 7148.094
730.43, 6875.031
730.61, 6860.695
730.80, 7211.581
730.98, 7497.614
731.17, 6968.555
731.35, 6884.930
731.54, 7161.747
731.72, 7468.601
731.90, 6874.690
732.09, 7018.730
732.27, 7453.241
732.46, 7490.787
732.64, 6911.553
732.82, 6909.164
733.01, 7301.009
733.19, 7334.117
733.38, 6656.922
733.56, 6929.644
733.74, 7303.739
733.93, 7320.123
734.11, 6887.660
734.29, 6770.926
734.48, 7170.280
734.66, 7037.162
734.85, 6653.509
735.03, 6663.066
735.21, 6931.350
735.40, 7264.145
735.58, 6658.288
735.77, 6558.620
735.95, 7076.415
736.13, 6805.059
736.32, 6454.174
736.50, 6505.031
736.68, 6629.275
736.87, 6972.651
737.05, 6424.137
737.23, 6454.856
737.42, 6779.801
737.60, 6736.111
737.79, 6421.065
737.97, 6324.469
738.15, 6834.072
738.34, 6656.581
738.52, 6331.978
738.70, 6482.504
738.89, 6872.300
739.07, 6608.112
739.25, 6516.637
739.44, 6362.356
739.62, 6944.321
739.80, 6474.653
739.99, 6217.292
740.17, 6396.489
740.35, 7025.557
740.54, 6741.230
740.72, 6295.797
740.90, 6240.502
741.09, 6436.766
741.27, 6601.286
741.45, 6311.157
741.64, 6181.111
741.82, 6671.258
742.00, 6481.480
742.19, 6263.030
742.37, 6244.598
742.55, 6431.646
742.74, 6463.731
742.92, 6103.971
743.10, 6234.358
743.29, 6597.873
743.47, 6574.662
743.65, 6016.250
743.83, 6192.375
744.02, 6368.159
744.20, 6214.902
744.38, 5893.713
744.57, 5940.816
744.75, 6166.093
744.93, 6224.801
745.12, 6012.836
745.30, 5915.558
745.48, 6737.135
745.66, 5984.506
745.85, 5797.458
746.03, 5801.213
746.21, 6299.893
746.40, 6113.869
746.58, 5877.329
746.76, 5725.779
746.94, 6298.187
747.13, 6185.548
747.31, 5665.023
747.49, 5816.914
747.68, 6117.624
747.86, 6238.113
748.04, 5656.490
748.22, 5623.381
748.41, 6225.484
748.59, 6291.360
748.77, 5607.338
748.95, 5766.739
749.14, 5931.600
749.32, 6039.119
749.50, 5618.261
749.68, 5529.174
749.87, 5915.558
750.05, 5943.547
750.23, 5645.909
750.42, 5712.809
750.60, 5905.659
750.78, 5951.056
750.96, 5751.379
751.15, 5738.750
751.33, 5735.336
751.51, 6131.618
751.69, 5680.724
751.87, 5599.829
752.06, 5709.737
752.24, 5904.294
752.42, 5525.761
752.60, 5523.372
752.79, 6161.997
752.97, 6051.748
753.15, 5553.067
753.33, 5615.872
753.52, 5860.263
753.70, 5911.120
753.88, 5565.696
754.06, 5617.237
754.24, 5780.050
754.43, 6187.938
754.61, 5527.809
754.79, 5504.257
754.97, 5740.798
755.16, 6033.316
755.34, 5595.392
755.52, 5680.383
755.70, 5918.288
755.88, 5691.988
756.07, 5578.326
756.25, 5552.726
756.43, 5980.069
756.61, 5719.977
756.79, 5633.279
756.98, 5520.300
757.16, 5955.493
757.34, 5733.630
757.52, 5603.242
757.70, 5652.735
757.89, 6114.893
758.07, 6432.329
758.25, 5716.222
758.43, 5644.202
758.61, 6114.552
758.80, 6166.434
758.98, 5865.041
759.16, 5775.613
759.34, 6322.080
759.52, 6086.222
759.70, 5895.419
759.89, 5896.443
760.07, 6185.548
760.25, 6250.059
760.43, 5825.106
760.61, 6002.596
760.79, 6347.679
760.98, 6362.015
761.16, 6237.089
761.34, 6412.873
761.52, 6418.675
761.70, 6826.904
761.88, 6630.640
762.07, 6707.098
762.25, 7449.828
762.43, 7225.575
762.61, 7062.420
762.79, 7155.944
762.97, 7567.586
763.15, 7545.400
763.34, 7393.850
763.52, 7545.400
763.70, 8191.875
763.88, 8213.720
764.06, 7893.896
764.24, 7712.992
764.42, 8301.783
764.61, 8112.346
764.79, 7750.196
764.97, 7948.167
765.15, 8051.589
765.33, 8378.923
765.51, 7787.401
765.69, 7921.884
765.87, 8081.967
766.06, 7972.060
766.24, 7339.579
766.42, 7154.237
766.60, 7433.444
766.78, 7522.189
766.96, 6978.795
767.14, 6729.967
767.32, 7106.452
767.50, 6625.520
767.69, 6419.017
767.87, 6401.950
768.05, 6736.452
768.23, 6329.930
768.41, 6224.801
768.59, 5906.342
768.77, 6251.425
768.95, 6158.925
769.13, 5715.881
769.32, 5707.006
769.50, 6078.030
769.68, 6015.226
769.86, 5656.490
770.04, 5459.885
770.22, 5534.977
770.40, 5771.517
770.58, 5347.246
770.76, 5357.486
770.94, 5855.143
771.12, 5458.178
771.30, 5229.830
771.49, 5414.829
771.67, 5661.610
771.85, 5590.613
772.03, 5224.368
772.21, 5224.368
772.39, 5454.765
772.57, 5648.298
772.75, 5011.380
772.93, 5165.660
773.11, 5604.266
773.29, 5441.453
773.47, 5013.428
773.65, 5099.442
773.83, 5543.510
774.01, 5125.383
774.19, 4990.559
774.38, 5078.280
774.56, 5408.685
774.74, 5310.042
774.92, 4783.031
775.10, 4793.612
775.28, 4925.706
775.46, 5438.381
775.64, 4603.492
775.82, 4699.406
776.00, 4743.778
776.18, 4883.040
776.36, 4577.893
776.54, 4826.721
776.72, 4928.437
776.90, 4976.223
777.08, 4625.679
777.26, 4595.301
777.44, 4865.291
777.62, 5003.529
777.80, 4589.157
777.98, 4550.928
778.16, 4746.168
778.34, 4932.874
778.52, 4690.190
778.70, 4516.795
778.88, 4774.839
779.06, 4612.708
779.24, 4472.081
779.42, 4583.354
779.60, 5001.140
779.78, 4841.057
779.96, 4353.640
780.14, 4489.489
780.32, 4784.055
780.50, 4919.562
780.68, 4416.103
780.86, 4401.085
781.04, 4777.228
781.22, 4609.978
781.40, 4483.345
781.58, 4342.376
781.76, 4686.776
781.94, 4798.049
782.12, 4433.170
782.30, 4541.712
782.48, 4746.850
782.66, 4714.765
782.84, 4424.978
783.02, 4404.839
783.20, 4756.407
783.38, 4814.775
783.56, 4223.594
783.74, 4215.061
783.92, 4571.749
784.10, 4709.645
784.28, 4347.496
784.46, 4316.777
784.64, 4611.684
784.82, 4611.002
785.00, 4169.664
785.18, 4133.142
785.36, 4765.282
785.54, 4273.087
785.72, 4221.546
785.90, 4225.301
786.08, 4360.467
786.26, 4474.470
786.43, 4255.338
786.61, 4230.762
786.79, 4833.889
786.97, 4855.393
787.15, 4267.967
787.33, 4208.576
787.51, 4446.140
787.69, 4773.815
787.87, 4227.349
788.05, 4254.996
788.23, 5173.510
788.41, 4560.144
788.59, 4411.666
788.77, 4371.731
788.95, 4656.740
789.13, 4671.417
789.30, 4376.509
789.48, 4246.805
789.66, 4712.717
789.84, 4648.889
790.02, 4303.124
790.20, 4109.249
790.38, 4737.976
790.56, 4523.622
790.74, 4203.797
790.92, 4320.873
791.10, 4717.155
791.28, 4773.474
791.45, 4438.631
791.63, 4080.919
791.81, 4883.040
791.99, 4587.450
792.17, 4118.465
792.35, 4121.537
792.53, 4137.238
792.71, 4570.384
792.89, 4036.888
793.07, 4229.397
793.24, 4353.640
793.42, 4665.273
793.60, 4007.534
793.78, 4073.410
793.96, 4311.316
794.14, 4381.629
794.32, 4024.600
794.50, 4063.511
794.67, 4374.461
794.85, 4227.349
795.03, 4109.591
795.21, 4072.386
795.39, 4421.565
795.57, 4410.642
795.75, 4063.170
795.93, 4060.781
796.10, 4726.029
796.28, 4311.316
796.46, 3938.244
796.64, 4033.133
796.82, 4564.240
797.00, 4512.358
797.18, 4024.941
797.35, 3986.030
797.53, 4344.083
797.71, 4418.151
797.89, 4222.229
798.07, 4047.810
798.25, 4313.022
798.43, 4557.413
798.60, 4038.594
798.78, 4020.163
798.96, 4657.764
799.14, 4120.172
799.32, 3833.456
799.50, 3999.342
799.67, 4221.546
799.85, 4243.050
800.03, 3939.268
800.21, 3978.179
800.39, 4271.039
800.57, 4320.873
800.74, 3873.392
800.92, 3916.058
801.10, 4109.249
801.28, 3923.225
801.46, 3744.028
801.64, 3795.569
801.81, 4369.683
801.99, 4046.445
802.17, 3856.325
802.35, 3795.227
802.53, 3967.939
802.70, 3534.453
802.88, 3652.894
803.06, 3603.401
803.24, 4058.050
803.42, 4140.310
803.59, 3664.840
803.77, 3567.220
803.95, 4389.821
804.13, 4143.041
804.31, 3709.554
804.48, 3665.864
804.66, 4152.257
804.84, 3823.558
805.02, 3742.663
805.20, 3757.681
805.37, 3937.561
805.55, 4050.541
805.73, 3698.632
805.91, 3810.929
806.08, 4099.692
806.26, 3944.046
806.44, 3630.366
806.62, 3542.645
806.80, 3953.604
806.97, 3877.146
807.15, 3666.888
807.33, 3790.790
807.51, 4106.519
807.68, 3576.095
807.86, 3683.613
808.04, 3608.862
808.22, 3948.142
808.39, 5452.034
808.57, 3635.827
808.75, 3665.181
808.93, 3941.999
809.10, 3761.777
809.28, 3593.844
809.46, 3566.538
809.64, 4150.209
809.81, 3743.346
809.99, 3672.349
810.17, 3468.235
810.35, 4427.026
810.52, 3943.364
810.70, 3636.169
810.88, 3628.659
811.06, 3971.011
811.23, 4153.622
811.41, 3553.908
811.59, 3352.866
811.77, 4129.729
811.94, 3746.759
812.12, 3700.338
812.30, 3619.443
812.47, 3953.945
812.65, 4044.738
812.83, 3652.211
813.01, 3602.377
813.18, 3793.521
813.36, 4012.312
813.54, 3537.525
813.71, 3631.049
813.89, 4390.162
814.07, 3963.844
814.25, 3729.692
814.42, 3623.198
814.60, 4273.769
814.78, 4089.794
814.95, 3469.942
815.13, 3733.447
815.31, 3982.958
815.49, 4177.856
815.66, 3691.805
815.84, 3769.628
816.02, 4221.205
816.19, 4052.248
816.37, 3834.139
816.55, 3827.312
816.72, 4360.808
816.90, 4018.797
817.08, 3703.751
817.25, 3775.430
817.43, 4317.118
817.61, 4147.137
817.78, 4068.973
817.96, 4101.057
818.14, 4105.836
818.31, 4438.631
818.49, 4142.358
818.67, 4071.362
818.84, 4353.299
819.02, 4357.054
819.20, 4265.236
819.37, 4496.657
819.55, 4783.031
819.73, 5084.082
819.90, 4829.452
820.08, 5256.453
820.26, 5631.231
820.43, 5913.168
820.61, 5779.709
820.79, 5964.368
820.96, 6670.576
821.14, 6801.304
821.32, 6919.404
821.49, 7118.739
821.67, 7680.224
821.85, 7900.381
822.02, 7980.593
822.20, 8116.783
822.37, 8798.756
822.55, 8568.701
822.73, 8697.382
822.90, 8683.729
823.08, 9457.178
823.26, 9135.306
823.43, 9104.245
823.61, 9099.125
823.78, 9485.167
823.96, 9321.330
824.14, 9214.153
824.31, 9142.474
824.49, 9647.639
824.67, 9595.758
824.84, 8889.208
825.02, 8778.618
825.19, 9017.889
825.37, 9218.931
825.55, 8317.825
825.72, 8106.202
825.90, 8087.770
826.07, 8118.831
826.25, 7916.082
826.43, 7505.805
826.60, 7499.320
826.78, 7743.029
826.95, 7252.881
827.13, 7181.202
827.31, 7667.595
827.48, 7438.905
827.66, 6889.026
827.83, 7095.870
828.01, 7006.442
828.19, 6938.518
828.36, 6579.782
828.54, 6623.472
828.71, 6627.227
828.89, 6596.849
829.06, 6121.379
829.24, 6318.666
829.42, 6143.906
829.59, 6360.991
829.77, 5711.444
829.94, 5493.676
830.12, 5725.779
830.29, 5389.912
830.47, 5011.380
830.65, 4856.075
830.82, 5467.053
831.00, 5080.669
831.17, 4647.865
831.35, 4638.308
831.52, 4878.262
831.70, 4958.474
831.87, 4377.875
832.05, 4418.151
832.23, 4826.038
832.40, 4830.476
832.58, 4739.000
832.75, 4630.799
832.93, 4966.324
833.10, 4890.208
833.28, 4782.690
833.45, 4718.520
833.63, 5153.713
833.80, 4799.415
833.98, 4845.835
834.15, 4921.269
834.33, 5159.516
834.51, 5108.317
834.68, 4680.291
834.86, 4710.669
835.03, 5056.435
835.21, 5079.986
835.38, 4753.335
835.56, 4734.221
835.73, 5018.889
835.91, 5126.748
836.08, 4464.572
836.26, 4622.607
836.43, 4816.822
836.61, 4823.308
836.78, 4250.218
836.96, 4081.943
837.13, 4822.966
837.31, 4489.489
837.48, 4077.164
837.66, 3777.820
837.83, 4214.378
838.01, 4249.535
838.18, 3594.526
838.36, 3510.901
838.53, 3953.604
838.71, 4330.089
838.88, 3481.547
839.06, 3592.820
839.23, 4083.991
839.41, 3950.190
839.58, 3527.626
839.76, 3407.479
839.93, 4117.441
840.11, 4097.303
840.28, 3429.324
840.46, 3497.931
840.63, 3721.842
840.81, 3874.416
840.98, 3383.927
841.15, 3452.875
841.33, 3931.759
841.50, 3744.370
841.68, 3457.995
841.85, 3514.314
842.03, 4150.550
842.20, 4019.480
842.38, 3236.132
842.55, 3231.012
842.73, 3797.958
842.90, 3533.770
843.08, 3236.815
843.25, 3294.499
843.42, 3574.047
843.60, 3743.687
843.77, 2988.669
843.95, 3030.994
844.12, 3149.776
844.30, 3661.427
844.47, 2909.140
844.64, 2854.868
844.82, 3801.371
844.99, 3321.464
845.17, 2904.702
845.34, 2716.972
845.52, 3334.776
845.69, 3433.420
845.87, 2843.263
846.04, 2760.662
846.21, 3267.193
846.39, 3315.320
846.56, 2792.064
846.74, 2716.972
846.91, 3177.082
847.08, 3155.237
847.26, 2628.227
847.43, 2684.204
847.61, 3158.992
847.78, 3546.399
847.95, 2735.745
848.13, 2679.084
848.30, 3204.388
848.48, 3116.326
848.65, 2736.769
848.83, 2725.846
849.00, 3062.737
849.17, 3183.567
849.35, 2700.247
849.52, 2613.891
849.69, 3289.379
849.87, 3048.743
850.04, 2599.555
850.22, 2566.105
850.39, 3095.846
850.56, 3378.807
850.74, 2573.955
850.91, 2583.171
851.09, 2975.699
851.26, 3191.418
851.43, 2497.839
851.61, 2711.511
851.78, 2966.824
851.95, 3081.510
852.13, 2584.537
852.30, 2535.044
852.48, 3555.274
852.65, 3109.499
852.82, 2602.286
853.00, 2612.525
853.17, 3224.527
853.34, 2815.274
853.52, 2616.963
853.69, 2451.419
853.86, 3286.307
854.04, 3130.662
854.21, 2643.928
854.38, 2556.206
854.56, 2942.248
854.73, 2894.804
854.90, 2638.125
855.08, 2575.321
855.25, 3196.538
855.42, 2747.691
855.60, 2705.367
855.77, 2619.693
855.95, 3162.064
856.12, 3205.412
856.29, 2472.581
856.46, 2650.072
856.64, 2994.813
856.81, 3143.291
856.98, 2637.101
857.16, 2613.891
857.33, 2876.713
857.50, 3230.671
857.68, 2505.007
857.85, 2618.669
858.02, 2918.014
858.20, 2946.003
858.37, 2601.603
858.54, 2445.616
858.72, 4002.755
858.89, 3286.649
859.06, 2538.116
859.24, 2528.217
859.41, 3134.758
859.58, 3145.680
859.75, 2565.764
859.93, 2519.684
860.10, 3130.662
860.27, 3187.322
860.45, 2555.865
860.62, 2612.867
860.79, 3111.547
860.97, 3161.040
861.14, 2585.561
861.31, 2583.854
861.48, 3112.912
861.66, 2807.082
861.83, 2491.695
862.00, 2460.976
862.17, 2861.012
862.35, 3174.693
862.52, 2508.079
862.69, 2617.645
862.87, 3119.398
863.04, 3156.261
863.21, 2455.173
863.38, 2602.968
863.56, 3172.645
863.73, 2989.010
863.90, 2498.522
864.07, 2731.649
864.25, 3379.490
864.42, 2925.523
864.59, 2472.240
864.76, 2513.199
864.94, 3262.414
865.11, 2944.296
865.28, 2482.479
865.45, 2584.878
865.63, 3083.558
865.80, 2911.870
865.97, 2533.337
866.14, 2506.031
866.32, 3157.968
866.49, 2992.424
866.66, 2734.038
866.83, 2559.278
867.01, 3006.077
867.18, 3035.431
867.35, 2488.965
867.52, 2486.917
867.70, 3372.663
867.87, 3456.289
868.04, 2547.332
868.21, 2621.400
868.38, 3162.405
868.56, 3349.112
868.73, 2631.981
868.90, 2544.260
869.07, 3074.001
869.24, 3319.075
869.42, 2636.418
869.59, 2805.717
869.76, 3381.879
869.93, 2998.568
870.11, 2750.763
870.28, 2579.417
870.45, 3407.479
870.62, 3181.861
870.79, 2634.712
870.97, 2715.265
871.14, 3299.619
871.31, 3263.438
871.48, 2666.455
871.65, 2847.359
871.82, 3456.289
872.00, 3209.508
872.17, 2617.304
872.34, 2738.134
872.51, 3108.134
872.68, 3227.940
872.86, 2793.771
873.03, 2600.238
873.20, 3237.839
873.37, 3625.929
873.54, 2617.645
873.71, 2679.426
873.89, 3507.488
874.06, 3316.685
874.23, 2657.922
874.40, 2751.446
874.57, 3542.303
874.74, 3144.997
874.92, 2787.285
875.09, 2592.046
875.26, 3486.325
875.43, 3308.152
875.60, 2726.188
875.77, 2794.112
875.95, 3088.337
876.12, 3302.691
876.29, 2722.433
876.46, 2826.197
876.63, 3184.933
876.80, 3327.267
876.97, 2994.472
877.15, 2692.055
877.32, 3533.429
877.49, 3199.610
877.66, 3142.267
877.83, 2950.099
878.00, 3234.767
878.17, 3818.438
878.34, 2903.678
878.52, 3039.868
878.69, 3512.608
878.86, 3328.973
879.03, 2991.058
879.20, 3037.820
879.37, 3718.770
879.54, 4200.384
879.71, 3160.016
879.89, 3359.351
880.06, 4154.987
880.23, 3964.526
880.40, 3596.233
880.57, 3704.093
880.74, 4110.273
880.91, 4548.539
881.08, 3862.810
881.25, 4052.248
881.42, 4607.588
881.60, 4488.465
881.77, 4066.242
881.94, 4082.626
882.11, 4591.887
882.28, 4787.127
882.45, 4243.733
882.62, 4333.843
882.79, 5050.291
882.96, 4829.452
883.13, 4237.247
883.30, 4532.496
883.48, 4893.280
883.65, 4700.088
883.82, 4164.544
883.99, 4223.936
884.16, 5027.763
884.33, 4595.983
884.50, 4199.019
884.67, 4280.255
884.84, 4595.983
885.01, 4461.841
885.18, 4012.653
885.35, 3949.166
885.52, 4049.858
885.69, 4286.057
885.87, 3743.687
886.04, 3684.296
886.21, 4154.987
886.38, 4192.192
886.55, 3442.294
886.72, 3419.084
886.89, 4070.679
887.06, 3813.659
887.23, 3299.960
887.40, 3334.093
887.57, 3731.399
887.74, 3735.495
887.91, 3004.029
888.08, 3048.401
888.25, 3662.109
888.42, 3976.131
888.59, 3050.449
888.76, 2983.208
888.93, 3489.056
889.10, 3243.641
889.27, 2962.045
889.44, 2977.064
889.61, 3341.261
889.78, 3303.715
889.95, 3021.778
890.12, 3066.151
890.29, 3477.110
890.46, 3227.599
890.63, 2748.715
890.80, 2778.411
890.97, 3246.713
891.15, 3326.584
891.32, 2804.011
891.49, 2839.167
891.66, 3600.329
891.83, 3235.108
892.00, 2850.090
892.17, 2894.121
892.34, 3373.346
892.51, 3400.993
892.68, 2833.706
892.84, 2747.691
893.01, 3105.745
893.18, 3385.634
893.35, 2849.407
893.52, 2797.867
893.69, 3486.325
##END=
##END=   $$end of all blocks
